Name: Graphite Schist 
Type:  Rocks
Class:  Metamorphic 
Subclass: Schist 
Particle Size:  500-1500 Micrometer
Sample No.:   schist10.doc
Owner:  JHU
Wavelength Range:  All
Origin:  Sample No. 397, The Hunt and Salisbury Collection at the U.S. 
Geological Survey, Denver, Co.
Description: This rock contains coarse, irregular bands of brown, tan and gray 
material.  Microscopically there are finer grains of calcite surrounded and 
enmeshed in a network of graphite bands and veins. There are also larger 
recrystallized calcite grains which are not associated with the graphite.  Modes 
for this rock gave 62.5% calcite and 37.5% graphite.  

Measurement:  Directional (10 Degree) Hemispherical Reflectance
First Column:  X
Second Column:  Y  
X Units:  Wavelength (micrometers)
Y Units:  Reflectance (percent)
First X Value: 14.9831	
Last X Value:  0.4
Number of X Values: 2868
Additional Information:  None

14.9831	2.7828
14.9399	2.9363
14.897	3.023
14.8543	3.0478
14.8119	3.0291
14.7697	2.9817
14.7277	2.923
14.686	2.8873
14.6445	2.8574
14.6033	2.8202
14.5622	2.7859
14.5214	2.7679
14.4809	2.7599
14.4405	2.7577
14.4004	2.7565
14.3605	2.758
14.3209	2.7487
14.2814	2.7423
14.2422	2.7651
14.2032	2.8101
14.1643	2.834
14.1258	2.8065
14.0874	2.708
14.0492	2.5278
14.0112	2.282
13.9734	2.0522
13.9359	1.922
13.8985	1.9106
13.8614	1.9952
13.8244	2.1403
13.7876	2.3018
13.7511	2.4371
13.7147	2.5266
13.6785	2.5901
13.6425	2.6478
13.6067	2.7006
13.5711	2.7468
13.5356	2.7859
13.5004	2.8148
13.4653	2.8333
13.4304	2.8437
13.3957	2.8506
13.3612	2.8584
13.3269	2.8704
13.2927	2.8858
13.2587	2.9
13.2249	2.9062
13.1912	2.9029
13.1577	2.891
13.1244	2.8754
13.0913	2.8598
13.0583	2.8463
13.0255	2.8352
12.9929	2.8254
12.9604	2.8162
12.9281	2.811
12.8959	2.8124
12.8639	2.8214
12.8321	2.8347
12.8004	2.847
12.7688	2.8546
12.7375	2.8565
12.7063	2.856
12.6752	2.8593
12.6443	2.8704
12.6135	2.8884
12.5829	2.9095
12.5524	2.9287
12.5221	2.9439
12.4919	2.9557
12.4619	2.9664
12.432	2.9789
12.4023	2.9934
12.3727	3.0087
12.3432	3.0237
12.3139	3.0381
12.2847	3.0535
12.2557	3.0706
12.2268	3.09
12.198	3.1122
12.1694	3.1343
12.1409	3.1532
12.1125	3.1681
12.0843	3.1807
12.0562	3.1913
12.0282	3.1994
12.0003	3.2096
11.9726	3.2261
11.945	3.243
11.9176	3.2484
11.8903	3.2351
11.8631	3.2044
11.836	3.1631
11.809	3.1248
11.7822	3.1115
11.7555	3.1402
11.7289	3.2017
11.7024	3.278
11.676	3.3535
11.6498	3.4187
11.6237	3.4734
11.5977	3.5297
11.5718	3.6124
11.546	3.75
11.5203	3.9761
11.4948	4.3271
11.4694	4.8104
11.444	5.4181
11.4188	6.1546
11.3937	6.9906
11.3688	7.814
11.3439	8.4621
11.3191	8.7816
11.2944	8.6587
11.2699	8.0411
11.2455	7.0221
11.2211	5.8586
11.1969	4.8156
11.1727	4.0451
11.1487	3.5878
11.1248	3.3983
11.101	3.3725
11.0773	3.39
11.0536	3.3895
11.0301	3.3784
11.0067	3.373
10.9834	3.3723
10.9602	3.3732
10.937	3.372
10.914	3.3673
10.8911	3.3573
10.8682	3.3429
10.8455	3.3249
10.8229	3.3045
10.8003	3.2816
10.7779	3.2574
10.7555	3.234
10.7332	3.2145
10.7111	3.2006
10.689	3.193
10.667	3.1906
10.6451	3.1913
10.6233	3.1909
10.6015	3.1892
10.5799	3.1873
10.5584	3.1887
10.5369	3.1944
10.5155	3.2032
10.4942	3.2171
10.473	3.2344
10.4519	3.2529
10.4309	3.2723
10.4099	3.2917
10.3891	3.31
10.3683	3.3235
10.3476	3.3306
10.327	3.3325
10.3065	3.3289
10.286	3.3206
10.2656	3.3109
10.2454	3.3036
10.2251	3.3007
10.205	3.3022
10.185	3.3064
10.165	3.3116
10.1451	3.3149
10.1253	3.3133
10.1056	3.3083
10.0859	3.3031
10.0663	3.2991
10.0468	3.2965
10.0274	3.2962
10.008	3.2981
9.9887	3.3003
9.9695	3.3014
9.9504	3.3022
9.9313	3.3033
9.9123	3.3045
9.8934	3.3067
9.8746	3.3116
9.8558	3.3183
9.8371	3.3251
9.8185	3.3322
9.7999	3.3408
9.7814	3.3509
9.763	3.3647
9.7447	3.3841
9.7264	3.409
9.7082	3.4371
9.69	3.4663
9.6719	3.4952
9.6539	3.5219
9.636	3.5447
9.6181	3.5648
9.6003	3.5837
9.5825	3.602
9.5649	3.6202
9.5472	3.6399
9.5297	3.659
9.5122	3.6766
9.4948	3.6905
9.4774	3.7012
9.4601	3.7085
9.4429	3.7126
9.4257	3.7145
9.4086	3.7154
9.3916	3.7137
9.3746	3.7128
9.3577	3.7161
9.3408	3.7265
9.324	3.7445
9.3073	3.7689
9.2906	3.7973
9.274	3.8246
9.2574	3.8447
9.2409	3.8589
9.2245	3.8698
9.2081	3.8805
9.1918	3.893
9.1755	3.9101
9.1593	3.9326
9.1431	3.9574
9.127	3.9825
9.111	4.0081
9.095	4.0339
9.0791	4.0585
9.0632	4.0815
9.0474	4.1028
9.0316	4.1215
9.0159	4.1367
9.0003	4.1478
8.9847	4.1561
8.9691	4.1611
8.9536	4.1625
8.9382	4.163
8.9228	4.1642
8.9075	4.1672
8.8922	4.1744
8.877	4.1845
8.8618	4.195
8.8467	4.2023
8.8316	4.2056
8.8166	4.2056
8.8016	4.2006
8.7867	4.1907
8.7718	4.1779
8.757	4.1601
8.7422	4.1353
8.7275	4.1047
8.7129	4.0711
8.6982	4.0339
8.6837	3.9915
8.6692	3.9446
8.6547	3.8956
8.6403	3.8452
8.6259	3.7985
8.6116	3.7649
8.5973	3.7476
8.583	3.7443
8.5688	3.749
8.5547	3.7566
8.5406	3.7604
8.5266	3.7559
8.5126	3.7462
8.4986	3.7393
8.4847	3.7396
8.4708	3.7478
8.457	3.7647
8.4432	3.7891
8.4295	3.8177
8.4158	3.8475
8.4022	3.8783
8.3886	3.9101
8.375	3.942
8.3615	3.9723
8.3481	4.001
8.3347	4.0289
8.3213	4.055
8.3079	4.0784
8.2946	4.1014
8.2814	4.1246
8.2682	4.1492
8.255	4.1746
8.2419	4.2006
8.2288	4.2253
8.2158	4.2454
8.2028	4.2587
8.1898	4.2665
8.1769	4.2707
8.164	4.2738
8.1512	4.2743
8.1384	4.2707
8.1256	4.262
8.1129	4.2478
8.1002	4.2331
8.0876	4.225
8.075	4.2319
8.0624	4.2568
8.0499	4.2965
8.0374	4.3449
8.025	4.3934
8.0126	4.4346
8.0002	4.4654
7.9879	4.4855
7.9756	4.4962
7.9634	4.499
7.9512	4.4957
7.939	4.49
7.9268	4.4843
7.9147	4.482
7.9027	4.4872
7.8906	4.5026
7.8786	4.5258
7.8667	4.5521
7.8548	4.5762
7.8429	4.5947
7.831	4.6056
7.8192	4.6115
7.8075	4.6179
7.7957	4.63
7.784	4.6504
7.7723	4.6769
7.7607	4.7041
7.7491	4.7271
7.7375	4.7427
7.726	4.7503
7.7145	4.7505
7.7031	4.7465
7.6916	4.7415
7.6802	4.7361
7.6689	4.7299
7.6575	4.7238
7.6462	4.7202
7.635	4.7202
7.6238	4.724
7.6126	4.7332
7.6014	4.7489
7.5903	4.7707
7.5792	4.7967
7.5681	4.8268
7.5571	4.8602
7.5461	4.8957
7.5351	4.9322
7.5242	4.9698
7.5133	5.0075
7.5024	5.0442
7.4916	5.0792
7.4807	5.1131
7.47	5.1455
7.4592	5.1777
7.4485	5.2114
7.4378	5.2493
7.4272	5.2902
7.4165	5.3343
7.4059	5.3797
7.3954	5.425
7.3848	5.4686
7.3743	5.5098
7.3639	5.5481
7.3534	5.5836
7.343	5.6154
7.3326	5.6438
7.3223	5.6684
7.3119	5.6907
7.3016	5.7153
7.2914	5.7456
7.2811	5.7852
7.2709	5.8375
7.2607	5.9029
7.2506	5.9791
7.2404	6.0632
7.2303	6.1534
7.2203	6.2531
7.2102	6.3677
7.2002	6.5011
7.1902	6.651
7.1803	6.8063
7.1703	6.9579
7.1604	7.1094
7.1506	7.2759
7.1407	7.4836
7.1309	7.7557
7.1211	8.0958
7.1113	8.4756
7.1016	8.8394
7.0919	9.1349
7.0822	9.3324
7.0725	9.4293
7.0629	9.449
7.0533	9.4279
7.0437	9.4009
7.0341	9.3867
7.0246	9.386
7.0151	9.3902
7.0056	9.3914
6.9962	9.3848
6.9867	9.3713
6.9773	9.3568
6.9679	9.3507
6.9586	9.3637
6.9493	9.4006
6.94	9.4561
6.9307	9.5262
6.9214	9.6069
6.9122	9.6898
6.903	9.7698
6.8938	9.8477
6.8847	9.9261
6.8755	10.0078
6.8664	10.0955
6.8573	10.2006
6.8483	10.324
6.8393	10.4542
6.8302	10.5835
6.8213	10.709
6.8123	10.8293
6.8034	10.9456
6.7944	11.0676
6.7855	11.2087
6.7767	11.3717
6.7678	11.549
6.759	11.7352
6.7502	11.9284
6.7414	12.1295
6.7327	12.3355
6.7239	12.5465
6.7152	12.7618
6.7065	12.9825
6.6979	13.2089
6.6892	13.4341
6.6806	13.6541
6.672	13.8679
6.6634	14.0711
6.6549	14.2655
6.6464	14.46
6.6378	14.6767
6.6294	14.9338
6.6209	15.2225
6.6124	15.5285
6.604	15.8385
6.5956	16.1376
6.5872	16.4203
6.5789	16.6934
6.5705	16.9709
6.5622	17.2584
6.5539	17.545
6.5456	17.8161
6.5374	18.0513
6.5292	18.2317
6.5209	18.3535
6.5128	18.4269
6.5046	18.4641
6.4964	18.4742
6.4883	18.4536
6.4802	18.3601
6.4721	18.1254
6.464	17.6802
6.456	16.9776
6.448	16.022
6.4399	14.8727
6.432	13.6304
6.424	12.4051
6.416	11.2753
6.4081	10.2861
6.4002	9.4362
6.3923	8.6914
6.3844	8.0169
6.3766	7.3863
6.3687	6.7845
6.3609	6.2091
6.3531	5.6634
6.3454	5.1581
6.3376	4.702
6.3299	4.3013
6.3221	3.96
6.3144	3.6782
6.3068	3.4516
6.2991	3.2726
6.2914	3.1298
6.2838	3.0104
6.2762	2.9048
6.2686	2.8056
6.2611	2.7068
6.2535	2.6066
6.246	2.5062
6.2385	2.4103
6.231	2.3217
6.2235	2.2408
6.216	2.168
6.2086	2.1027
6.2011	2.043
6.1937	1.9869
6.1863	1.9343
6.179	1.8874
6.1716	1.8465
6.1643	1.8126
6.157	1.7863
6.1496	1.7664
6.1424	1.7498
6.1351	1.7349
6.1278	1.7219
6.1206	1.7108
6.1134	1.6996
6.1062	1.6899
6.099	1.6819
6.0918	1.6741
6.0847	1.6653
6.0776	1.6563
6.0704	1.6499
6.0633	1.6471
6.0563	1.6482
6.0492	1.6553
6.0421	1.6679
6.0351	1.6823
6.0281	1.6947
6.0211	1.7027
6.0141	1.707
6.0071	1.7082
6.0002	1.7079
5.9932	1.7091
5.9863	1.7143
5.9794	1.7217
5.9725	1.7295
5.9657	1.7368
5.9588	1.743
5.952	1.7465
5.9451	1.7484
5.9383	1.7513
5.9315	1.7579
5.9247	1.7674
5.918	1.7785
5.9112	1.7906
5.9045	1.8012
5.8978	1.8081
5.8911	1.8126
5.8844	1.8164
5.8777	1.8221
5.8711	1.8299
5.8644	1.8382
5.8578	1.845
5.8512	1.8474
5.8446	1.8448
5.838	1.8389
5.8314	1.833
5.8249	1.8301
5.8184	1.8334
5.8118	1.8424
5.8053	1.8531
5.7988	1.8614
5.7923	1.8654
5.7859	1.8659
5.7794	1.8637
5.773	1.8611
5.7666	1.863
5.7602	1.8713
5.7538	1.8841
5.7474	1.9
5.741	1.9192
5.7347	1.9409
5.7283	1.963
5.722	1.9848
5.7157	2.0075
5.7094	2.0316
5.7031	2.0558
5.6969	2.0802
5.6906	2.1077
5.6844	2.1394
5.6782	2.1747
5.6719	2.2121
5.6657	2.2505
5.6596	2.2867
5.6534	2.3182
5.6472	2.3419
5.6411	2.3568
5.6349	2.3613
5.6288	2.3535
5.6227	2.3305
5.6166	2.2902
5.6106	2.2301
5.6045	2.1517
5.5984	2.0589
5.5924	1.9585
5.5864	1.8581
5.5804	1.7676
5.5744	1.6999
5.5684	1.6653
5.5624	1.6719
5.5564	1.7266
5.5505	1.8318
5.5445	1.9798
5.5386	2.1553
5.5327	2.3405
5.5268	2.5211
5.5209	2.6871
5.5151	2.8342
5.5092	2.9654
5.5033	3.0862
5.4975	3.2015
5.4917	3.3128
5.4859	3.4208
5.4801	3.5271
5.4743	3.6316
5.4685	3.7315
5.4628	3.8253
5.457	3.9127
5.4513	3.996
5.4455	4.0806
5.4398	4.1736
5.4341	4.2838
5.4284	4.4121
5.4228	4.5535
5.4171	4.6998
5.4114	4.8431
5.4058	4.9764
5.4002	5.0979
5.3945	5.2095
5.3889	5.3156
5.3833	5.4183
5.3778	5.5171
5.3722	5.6123
5.3666	5.7028
5.3611	5.7875
5.3555	5.8685
5.35	5.9493
5.3445	6.0326
5.339	6.1196
5.3335	6.2095
5.328	6.3012
5.3225	6.3909
5.3171	6.4755
5.3116	6.5546
5.3062	6.6292
5.3008	6.6986
5.2954	6.762
5.29	6.8212
5.2846	6.8769
5.2792	6.9302
5.2738	6.982
5.2684	7.0353
5.2631	7.0903
5.2578	7.145
5.2524	7.198
5.2471	7.2485
5.2418	7.2956
5.2365	7.3384
5.2312	7.378
5.226	7.4154
5.2207	7.4526
5.2154	7.4921
5.2102	7.5367
5.205	7.5866
5.1998	7.6399
5.1945	7.6927
5.1893	7.7415
5.1842	7.7839
5.179	7.8208
5.1738	7.8554
5.1686	7.8909
5.1635	7.9291
5.1584	7.9698
5.1532	8.0112
5.1481	8.0541
5.143	8.1019
5.1379	8.1559
5.1328	8.1964
5.1277	8.1772
5.1227	8.0574
5.1176	7.8294
5.1126	7.53
5.1075	7.2402
5.1025	7.0647
5.0975	7.0872
5.0925	7.3148
5.0875	7.6669
5.0825	8.0401
5.0775	8.3506
5.0726	8.5533
5.0676	8.6497
5.0627	8.6776
5.0577	8.6833
5.0528	8.6904
5.0479	8.699
5.043	8.707
5.038	8.7122
5.0332	8.7127
5.0283	8.7077
5.0234	8.699
5.0185	8.6892
5.0137	8.6819
5.0088	8.6798
5.004	8.685
4.9992	8.694
4.9944	8.7023
4.9896	8.7058
4.9848	8.7042
4.98	8.6978
4.9752	8.6883
4.9704	8.6781
4.9657	8.6701
4.9609	8.6646
4.9562	8.6606
4.9514	8.6582
4.9467	8.658
4.942	8.6592
4.9373	8.6627
4.9326	8.6686
4.9279	8.6765
4.9232	8.685
4.9186	8.6937
4.9139	8.7025
4.9092	8.7115
4.9046	8.7203
4.9	8.729
4.8953	8.738
4.8907	8.7466
4.8861	8.7544
4.8815	8.7629
4.8769	8.7728
4.8723	8.7842
4.8678	8.796
4.8632	8.8077
4.8586	8.8183
4.8541	8.828
4.8495	8.8377
4.845	8.8479
4.8405	8.8574
4.836	8.8657
4.8315	8.8725
4.827	8.877
4.8225	8.8794
4.818	8.8811
4.8135	8.883
4.809	8.8849
4.8046	8.8851
4.8001	8.8837
4.7957	8.8811
4.7913	8.8754
4.7868	8.8643
4.7824	8.847
4.778	8.8219
4.7736	8.7861
4.7692	8.7387
4.7648	8.6821
4.7605	8.6184
4.7561	8.5495
4.7517	8.4778
4.7474	8.4034
4.7431	8.3205
4.7387	8.2182
4.7344	8.0804
4.7301	7.8933
4.7258	7.6487
4.7215	7.3472
4.7172	7.0043
4.7129	6.6462
4.7086	6.3
4.7043	5.9891
4.7	5.7274
4.6958	5.5209
4.6915	5.367
4.6873	5.2568
4.6831	5.1822
4.6788	5.1361
4.6746	5.1136
4.6704	5.1124
4.6662	5.1351
4.662	5.1882
4.6578	5.2791
4.6536	5.4138
4.6495	5.5922
4.6453	5.8067
4.6411	6.0447
4.637	6.2901
4.6328	6.5271
4.6287	6.7445
4.6246	6.9352
4.6205	7.0962
4.6163	7.2267
4.6122	7.3271
4.6081	7.4019
4.604	7.4571
4.6	7.5
4.5959	7.5364
4.5918	7.5693
4.5877	7.5994
4.5837	7.6252
4.5796	7.6463
4.5756	7.6624
4.5716	7.6757
4.5675	7.6882
4.5635	7.7003
4.5595	7.7114
4.5555	7.7214
4.5515	7.7306
4.5475	7.7382
4.5435	7.7448
4.5395	7.751
4.5356	7.7569
4.5316	7.7621
4.5276	7.7668
4.5237	7.7725
4.5197	7.7796
4.5158	7.7893
4.5119	7.8033
4.508	7.8237
4.504	7.853
4.5001	7.894
4.4962	7.9487
4.4923	8.0174
4.4884	8.0986
4.4846	8.1884
4.4807	8.2819
4.4768	8.3738
4.473	8.461
4.4691	8.5412
4.4652	8.6135
4.4614	8.6795
4.4576	8.7423
4.4537	8.8053
4.4499	8.8711
4.4461	8.9403
4.4423	9.0113
4.4385	9.0812
4.4347	9.1456
4.4309	9.2024
4.4271	9.2517
4.4233	9.2948
4.4196	9.3329
4.4158	9.367
4.412	9.3959
4.4083	9.4186
4.4045	9.435
4.4008	9.4468
4.3971	9.4577
4.3934	9.4696
4.3896	9.4828
4.3859	9.4956
4.3822	9.5046
4.3785	9.5051
4.3748	9.4921
4.3711	9.4632
4.3674	9.4175
4.3638	9.3568
4.3601	9.2853
4.3564	9.2098
4.3528	9.1368
4.3491	9.0715
4.3455	9.0149
4.3418	8.9661
4.3382	8.9213
4.3346	8.8759
4.331	8.8245
4.3273	8.7634
4.3237	8.6895
4.3201	8.6033
4.3165	8.5069
4.3129	8.4025
4.3094	8.2895
4.3058	8.164
4.3022	8.0188
4.2986	7.8483
4.2951	7.652
4.2915	7.4367
4.288	7.2148
4.2844	6.9989
4.2809	6.8006
4.2774	6.628
4.2738	6.4871
4.2703	6.3812
4.2668	6.3137
4.2633	6.2865
4.2598	6.2948
4.2563	6.3291
4.2528	6.3815
4.2493	6.4454
4.2458	6.5184
4.2424	6.6012
4.2389	6.6995
4.2354	6.8189
4.232	6.9572
4.2285	7.108
4.2251	7.2643
4.2216	7.4185
4.2182	7.5641
4.2148	7.6977
4.2113	7.8182
4.2079	7.9267
4.2045	8.0219
4.2011	8.1024
4.1977	8.1687
4.1943	8.2208
4.1909	8.2597
4.1875	8.2867
4.1841	8.3028
4.1808	8.3089
4.1774	8.3061
4.174	8.2949
4.1707	8.2762
4.1673	8.2504
4.164	8.2177
4.1606	8.1787
4.1573	8.1325
4.154	8.0794
4.1506	8.02
4.1473	7.9539
4.144	7.8812
4.1407	7.8028
4.1374	7.7204
4.1341	7.634
4.1308	7.5438
4.1275	7.4519
4.1242	7.3588
4.1209	7.2648
4.1177	7.1696
4.1144	7.0753
4.1111	6.9835
4.1079	6.8925
4.1046	6.8032
4.1014	6.7159
4.0981	6.6304
4.0949	6.5444
4.0917	6.4563
4.0884	6.3647
4.0852	6.268
4.082	6.1655
4.0788	6.058
4.0756	5.9469
4.0724	5.8351
4.0692	5.7238
4.066	5.613
4.0628	5.5
4.0596	5.3805
4.0565	5.2481
4.0533	5.097
4.0501	4.9262
4.047	4.7408
4.0438	4.5499
4.0406	4.3662
4.0375	4.2002
4.0344	4.0593
4.0312	3.943
4.0281	3.8457
4.025	3.7578
4.0218	3.6709
4.0187	3.5773
4.0156	3.4746
4.0125	3.3635
4.0094	3.2498
4.0063	3.1399
4.0032	3.0391
4.0001	2.9498
3.997	2.8733
3.994	2.8098
3.9909	2.758
3.9878	2.7165
3.9847	2.6857
3.9817	2.6651
3.9786	2.6545
3.9756	2.6523
3.9725	2.6573
3.9695	2.6682
3.9665	2.6843
3.9634	2.7056
3.9604	2.7333
3.9574	2.7703
3.9544	2.8195
3.9513	2.8828
3.9483	2.9571
3.9453	3.0369
3.9423	3.1151
3.9393	3.1833
3.9363	3.2361
3.9333	3.273
3.9304	3.2984
3.9274	3.3176
3.9244	3.3346
3.9214	3.3514
3.9185	3.368
3.9155	3.3832
3.9126	3.3959
3.9096	3.4068
3.9067	3.4168
3.9037	3.427
3.9008	3.4369
3.8979	3.4464
3.8949	3.4544
3.892	3.4615
3.8891	3.4684
3.8862	3.475
3.8833	3.4807
3.8804	3.4862
3.8775	3.4914
3.8746	3.4968
3.8717	3.5027
3.8688	3.5106
3.8659	3.5203
3.863	3.5304
3.8601	3.5411
3.8573	3.552
3.8544	3.5629
3.8515	3.5738
3.8487	3.5852
3.8458	3.6013
3.843	3.6247
3.8401	3.6588
3.8373	3.7071
3.8344	3.7706
3.8316	3.8461
3.8288	3.93
3.8259	4.0192
3.8231	4.1137
3.8203	4.2132
3.8175	4.3198
3.8147	4.4386
3.8119	4.5741
3.8091	4.7304
3.8063	4.9139
3.8035	5.1299
3.8007	5.3776
3.7979	5.65
3.7951	5.9351
3.7924	6.2167
3.7896	6.4776
3.7868	6.7054
3.7841	6.8956
3.7813	7.0495
3.7785	7.1734
3.7758	7.2755
3.773	7.3636
3.7703	7.4419
3.7676	7.513
3.7648	7.5755
3.7621	7.6278
3.7594	7.6695
3.7566	7.7024
3.7539	7.7306
3.7512	7.7581
3.7485	7.7889
3.7458	7.8253
3.7431	7.8677
3.7404	7.9134
3.7377	7.9584
3.735	8.0003
3.7323	8.0368
3.7296	8.0671
3.7269	8.0908
3.7242	8.109
3.7216	8.1242
3.7189	8.1372
3.7162	8.1488
3.7136	8.1597
3.7109	8.1699
3.7083	8.1782
3.7056	8.1836
3.703	8.1851
3.7003	8.1829
3.6977	8.1775
3.695	8.1701
3.6924	8.1614
3.6898	8.1519
3.6872	8.142
3.6845	8.1313
3.6819	8.1199
3.6793	8.1069
3.6767	8.0922
3.6741	8.0764
3.6715	8.0588
3.6689	8.0401
3.6663	8.0202
3.6637	7.9996
3.6611	7.9779
3.6585	7.9556
3.656	7.9336
3.6534	7.912
3.6508	7.8916
3.6482	7.8722
3.6457	7.8523
3.6431	7.8303
3.6406	7.8057
3.638	7.7785
3.6355	7.7505
3.6329	7.7226
3.6304	7.6946
3.6278	7.6662
3.6253	7.6366
3.6227	7.6049
3.6202	7.5701
3.6177	7.5324
3.6152	7.4924
3.6127	7.4498
3.6101	7.4036
3.6076	7.3529
3.6051	7.2975
3.6026	7.2378
3.6001	7.1724
3.5976	7.1002
3.5951	7.0209
3.5926	6.9323
3.5901	6.8324
3.5876	6.7185
3.5852	6.5908
3.5827	6.453
3.5802	6.3137
3.5777	6.1856
3.5753	6.0826
3.5728	6.0139
3.5704	5.9813
3.5679	5.9765
3.5654	5.9848
3.563	5.9905
3.5605	5.9822
3.5581	5.9543
3.5557	5.9062
3.5532	5.8399
3.5508	5.7591
3.5484	5.6651
3.5459	5.5576
3.5435	5.4363
3.5411	5.3023
3.5387	5.156
3.5363	4.9956
3.5338	4.8209
3.5314	4.6354
3.529	4.4427
3.5266	4.2497
3.5242	4.0671
3.5218	3.9049
3.5195	3.7692
3.5171	3.6612
3.5147	3.5788
3.5123	3.517
3.5099	3.4675
3.5075	3.4255
3.5052	3.3877
3.5028	3.3517
3.5004	3.3164
3.4981	3.2823
3.4957	3.2486
3.4934	3.2145
3.491	3.1788
3.4887	3.1425
3.4863	3.107
3.484	3.0748
3.4816	3.0514
3.4793	3.0419
3.477	3.0516
3.4746	3.0826
3.4723	3.1345
3.47	3.2017
3.4677	3.2766
3.4653	3.35
3.463	3.4139
3.4607	3.4637
3.4584	3.4985
3.4561	3.521
3.4538	3.5352
3.4515	3.5442
3.4492	3.5501
3.4469	3.5548
3.4446	3.5579
3.4423	3.5589
3.44	3.5584
3.4378	3.5572
3.4355	3.5551
3.4332	3.5511
3.4309	3.5468
3.4287	3.5432
3.4264	3.5399
3.4241	3.5361
3.4219	3.5328
3.4196	3.5295
3.4174	3.5248
3.4151	3.5181
3.4129	3.512
3.4106	3.5072
3.4084	3.5042
3.4061	3.5025
3.4039	3.503
3.4017	3.5042
3.3994	3.5044
3.3972	3.5016
3.395	3.4949
3.3928	3.4852
3.3906	3.4731
3.3883	3.4596
3.3861	3.4469
3.3839	3.4362
3.3817	3.4281
3.3795	3.4218
3.3773	3.4175
3.3751	3.4163
3.3729	3.4163
3.3707	3.4158
3.3685	3.4135
3.3663	3.4066
3.3641	3.3924
3.362	3.3692
3.3598	3.3393
3.3576	3.3069
3.3554	3.2775
3.3533	3.2617
3.3511	3.2709
3.3489	3.3157
3.3468	3.4014
3.3446	3.5283
3.3425	3.6905
3.3403	3.875
3.3382	4.0664
3.336	4.2494
3.3339	4.4142
3.3317	4.5563
3.3296	4.6757
3.3274	4.7752
3.3253	4.8571
3.3232	4.9267
3.321	4.9881
3.3189	5.0423
3.3168	5.0906
3.3147	5.1356
3.3126	5.178
3.3104	5.2178
3.3083	5.2521
3.3062	5.2827
3.3041	5.3106
3.302	5.3357
3.2999	5.3587
3.2978	5.3814
3.2957	5.4039
3.2936	5.4259
3.2915	5.4453
3.2894	5.4629
3.2874	5.4783
3.2853	5.4913
3.2832	5.5029
3.2811	5.5152
3.279	5.5278
3.277	5.5394
3.2749	5.55
3.2728	5.56
3.2708	5.5687
3.2687	5.5758
3.2666	5.5834
3.2646	5.5924
3.2625	5.6009
3.2605	5.608
3.2584	5.6135
3.2564	5.6182
3.2543	5.622
3.2523	5.6251
3.2503	5.6289
3.2482	5.6341
3.2462	5.64
3.2442	5.6455
3.2421	5.649
3.2401	5.6516
3.2381	5.6545
3.2361	5.6556
3.234	5.6552
3.232	5.6549
3.23	5.6561
3.228	5.6566
3.226	5.6552
3.224	5.6547
3.222	5.6559
3.22	5.6563
3.218	5.6554
3.216	5.6545
3.214	5.654
3.212	5.6514
3.21	5.6462
3.208	5.6398
3.206	5.6341
3.204	5.6301
3.2021	5.6282
3.2001	5.6275
3.1981	5.6263
3.1961	5.6225
3.1942	5.614
3.1922	5.6012
3.1902	5.5874
3.1883	5.5758
3.1863	5.5666
3.1844	5.5593
3.1824	5.5524
3.1805	5.5441
3.1785	5.5325
3.1766	5.518
3.1746	5.5017
3.1727	5.4832
3.1707	5.4619
3.1688	5.4378
3.1669	5.4112
3.1649	5.3821
3.163	5.3525
3.1611	5.3246
3.1591	5.2995
3.1572	5.2774
3.1553	5.2592
3.1534	5.2457
3.1515	5.2365
3.1495	5.2294
3.1476	5.2249
3.1457	5.2218
3.1438	5.2201
3.1419	5.2201
3.14	5.2225
3.1381	5.2282
3.1362	5.2334
3.1343	5.2343
3.1324	5.2301
3.1305	5.2199
3.1286	5.205
3.1268	5.1879
3.1249	5.1709
3.123	5.1548
3.1211	5.1372
3.1192	5.1183
3.1174	5.1005
3.1155	5.0851
3.1136	5.0728
3.1117	5.0631
3.1099	5.0553
3.108	5.0489
3.1061	5.0432
3.1043	5.0385
3.1024	5.0378
3.1006	5.0416
3.0987	5.048
3.0969	5.0541
3.095	5.0591
3.0932	5.0638
3.0913	5.0679
3.0895	5.0714
3.0876	5.0771
3.0858	5.0837
3.084	5.0894
3.0821	5.0934
3.0803	5.096
3.0785	5.0975
3.0766	5.0986
3.0748	5.1003
3.073	5.1027
3.0712	5.1039
3.0694	5.1029
3.0675	5.1005
3.0657	5.0967
3.0639	5.093
3.0621	5.0906
3.0603	5.0913
3.0585	5.0951
3.0567	5.0994
3.0549	5.1008
3.0531	5.0986
3.0513	5.0934
3.0495	5.0873
3.0477	5.0821
3.0459	5.0797
3.0441	5.0816
3.0423	5.0844
3.0406	5.0842
3.0388	5.0816
3.037	5.078
3.0352	5.0738
3.0334	5.0679
3.0317	5.0617
3.0299	5.0555
3.0281	5.0477
3.0264	5.0387
3.0246	5.0321
3.0228	5.0283
3.0211	5.0264
3.0193	5.0257
3.0176	5.0255
3.0158	5.0255
3.014	5.0245
3.0123	5.0217
3.0105	5.0174
3.0088	5.0115
3.007	5.0032
3.0053	4.9942
3.0036	4.9859
3.0018	4.98
3.0001	4.976
2.9984	4.9722
2.9966	4.9672
2.9949	4.9608
2.9932	4.953
2.9914	4.9452
2.9897	4.9388
2.988	4.9341
2.9863	4.9307
2.9845	4.9262
2.9828	4.9189
2.9811	4.9097
2.9794	4.9002
2.9777	4.8926
2.976	4.8862
2.9743	4.8817
2.9726	4.8779
2.9709	4.873
2.9692	4.8661
2.9675	4.8573
2.9658	4.8495
2.9641	4.8424
2.9624	4.8365
2.9607	4.8325
2.959	4.8301
2.9573	4.828
2.9556	4.8263
2.9539	4.8249
2.9523	4.8239
2.9506	4.8225
2.9489	4.8209
2.9472	4.8192
2.9455	4.818
2.9439	4.8173
2.9422	4.8168
2.9405	4.8161
2.9389	4.8138
2.9372	4.8083
2.9355	4.8007
2.9339	4.7946
2.9322	4.792
2.9306	4.7924
2.9289	4.7967
2.9272	4.8033
2.9256	4.8114
2.9239	4.8183
2.9223	4.8232
2.9207	4.8273
2.919	4.8306
2.9174	4.8327
2.9157	4.8353
2.9141	4.8396
2.9124	4.846
2.9108	4.854
2.9092	4.8611
2.9075	4.8644
2.9059	4.8661
2.9043	4.8677
2.9027	4.8711
2.901	4.8782
2.8994	4.8893
2.8978	4.9014
2.8962	4.9104
2.8946	4.9142
2.8929	4.9149
2.8913	4.9137
2.8897	4.9125
2.8881	4.9149
2.8865	4.9217
2.8849	4.9319
2.8833	4.9435
2.8817	4.9554
2.8801	4.9658
2.8785	4.9724
2.8769	4.976
2.8753	4.9788
2.8737	4.9819
2.8721	4.9862
2.8705	4.9909
2.8689	4.9966
2.8673	5.0023
2.8658	5.0072
2.8642	5.0148
2.8626	5.0259
2.861	5.0399
2.8594	5.0555
2.8579	5.07
2.8563	5.0818
2.8547	5.0918
2.8531	5.101
2.8516	5.1102
2.85	5.12
2.8484	5.1299
2.8469	5.1417
2.8453	5.1531
2.8437	5.1635
2.8422	5.1756
2.8406	5.1886
2.8391	5.2002
2.8375	5.209
2.836	5.2166
2.8344	5.2249
2.8329	5.2341
2.8313	5.245
2.8298	5.2585
2.8282	5.2739
2.8267	5.2893
2.8252	5.304
2.8236	5.3172
2.8221	5.3293
2.8205	5.3407
2.819	5.3523
2.8175	5.3646
2.8159	5.3793
2.8144	5.3966
2.8129	5.4146
2.8114	5.4285
2.8098	5.4373
2.8083	5.4427
2.8068	5.4468
2.8053	5.4536
2.8038	5.4671
2.8022	5.4877
2.8007	5.5112
2.7992	5.5325
2.7977	5.5495
2.7962	5.5626
2.7947	5.572
2.7932	5.5817
2.7917	5.5952
2.7902	5.6158
2.7887	5.644
2.7872	5.6824
2.7857	5.7326
2.7842	5.7942
2.7827	5.8638
2.7812	5.9389
2.7797	6.0175
2.7782	6.098
2.7767	6.1769
2.7752	6.2545
2.7738	6.3325
2.7723	6.4127
2.7708	6.4947
2.7693	6.5795
2.7678	6.6692
2.7664	6.7635
2.7649	6.8577
2.7634	6.9491
2.7619	7.0384
2.7605	7.126
2.759	7.2129
2.7575	7.3027
2.7561	7.4003
2.7546	7.508
2.7531	7.6231
2.7517	7.7427
2.7502	7.8654
2.7488	7.9878
2.7473	8.105
2.7458	8.2173
2.7444	8.3283
2.7429	8.442
2.7415	8.5623
2.74	8.6949
2.7386	8.8434
2.7371	9.004
2.7357	9.1705
2.7343	9.3412
2.7328	9.5117
2.7314	9.6782
2.7299	9.8411
2.7285	10
2.7271	10.1554
2.7256	10.3095
2.7242	10.4675
2.7228	10.6366
2.7213	10.8196
2.7199	11.0183
2.7185	11.2281
2.7171	11.4349
2.7156	11.6303
2.7142	11.8126
2.7128	11.9845
2.7114	12.1539
2.71	12.3298
2.7085	12.5138
2.7071	12.6952
2.7057	12.8622
2.7043	13.0099
2.7029	13.1371
2.7015	13.2456
2.7001	13.3417
2.6987	13.4336
2.6973	13.526
2.6959	13.6209
2.6945	13.7223
2.6931	13.8341
2.6917	13.9534
2.6903	14.0725
2.6889	14.1865
2.6875	14.2902
2.6861	14.3828
2.6847	14.4614
2.6833	14.5246
2.6819	14.576
2.6805	14.6234
2.6791	14.6693
2.6778	14.7162
2.6764	14.7645
2.675	14.814
2.6736	14.8557
2.6722	14.8801
2.6709	14.8929
2.6695	14.9125
2.6681	14.9445
2.6667	14.9885
2.6654	15.0499
2.664	15.1276
2.6626	15.2078
2.6613	15.2768
2.6599	15.3307
2.6585	15.3743
2.6572	15.4063
2.6558	15.4274
2.6545	15.4477
2.6531	15.47
2.6517	15.4949
2.6504	15.5202
2.649	15.5446
2.6477	15.5668
2.6463	15.5877
2.645	15.6083
2.6436	15.6306
2.6423	15.6502
2.6409	15.6684
2.6396	15.6867
2.6382	15.6997
2.6369	15.703
2.6356	15.6969
2.6342	15.6838
2.6329	15.6668
2.6315	15.6495
2.6302	15.6455
2.6289	15.6625
2.6275	15.6895
2.6262	15.7191
2.6249	15.7445
2.6236	15.7542
2.6222	15.7445
2.6209	15.7217
2.6196	15.7054
2.6183	15.7037
2.6169	15.712
2.6156	15.7348
2.6143	15.7665
2.613	15.7895
2.6117	15.7932
2.6103	15.779
2.609	15.7551
2.6077	15.7269
2.6064	15.7018
2.6051	15.6959
2.6038	15.7149
2.6025	15.74
2.6012	15.7499
2.5999	15.7333
2.5986	15.6879
2.5973	15.6213
2.596	15.5524
2.5947	15.5074
2.5934	15.5034
2.5921	15.5249
2.5908	15.5467
2.5895	15.5524
2.5882	15.5339
2.5869	15.4953
2.5856	15.4501
2.5843	15.4117
2.583	15.3937
2.5817	15.3921
2.5805	15.3928
2.5792	15.3899
2.5779	15.3793
2.5766	15.3603
2.5753	15.3326
2.5741	15.2974
2.5728	15.2602
2.5715	15.2211
2.5702	15.173
2.569	15.1157
2.5677	15.0468
2.5664	14.9639
2.5651	14.8652
2.5639	14.7555
2.5626	14.6423
2.5613	14.526
2.5601	14.4017
2.5588	14.2637
2.5575	14.104
2.5563	13.9179
2.555	13.7067
2.5538	13.4779
2.5525	13.2425
2.5513	13.0095
2.55	12.7819
2.5487	12.5602
2.5475	12.3469
2.5462	12.1446
2.545	11.9571
2.5437	11.7887
2.5425	11.6457
2.5413	11.531
2.54	11.4441
2.5388	11.3866
2.5375	11.3596
2.5363	11.3627
2.535	11.3925
2.5338	11.4467
2.5326	11.5225
2.5313	11.6151
2.5301	11.7188
2.5289	11.8311
2.5276	11.95
2.5264	12.071
2.5252	12.1906
2.5239	12.3061
2.5227	12.4163
2.5215	12.5188
2.5202	12.6116
2.519	12.6962
2.5178	12.7722
2.5166	12.8385
2.5154	12.8968
2.5141	12.947
2.5129	12.9891
2.5117	13.0232
2.5105	13.0509
2.5093	13.0744
2.5081	13.0945
2.5068	13.1137
2.5056	13.1345
2.5044	13.1575
2.5032	13.1814
2.502	13.2053
2.5008	13.2283
2.4996	13.2491
2.4984	13.2686
2.4972	13.2894
2.496	13.3128
2.4948	13.3398
2.4936	13.3694
2.4924	13.4005
2.4912	13.4317
2.49	13.4623
2.4888	13.4931
2.4876	13.5272
2.4864	13.5667
2.4852	13.6122
2.484	13.6633
2.4828	13.7202
2.4816	13.7827
2.4805	13.849
2.4793	13.9177
2.4781	13.9899
2.4769	14.0647
2.4757	14.1398
2.4745	14.2149
2.4734	14.2909
2.4722	14.3681
2.471	14.446
2.4698	14.523
2.4686	14.5992
2.4675	14.6733
2.4663	14.7439
2.4651	14.8105
2.464	14.8744
2.4628	14.9364
2.4616	14.9959
2.4604	15.052
2.4593	15.1055
2.4581	15.1572
2.4569	15.2074
2.4558	15.2552
2.4546	15.3014
2.4535	15.3459
2.4523	15.3873
2.4511	15.4252
2.45	15.4615
2.4488	15.4982
2.4477	15.5365
2.4465	15.5754
2.4454	15.6133
2.4442	15.6488
2.4431	15.6791
2.4419	15.7044
2.4408	15.7265
2.4396	15.7473
2.4385	15.7712
2.4373	15.7987
2.4362	15.8285
2.435	15.8596
2.4339	15.8887
2.4327	15.9154
2.4316	15.9377
2.4305	15.9562
2.4293	15.9742
2.4282	15.9919
2.427	16.0109
2.4259	16.0305
2.4248	16.049
2.4236	16.0656
2.4225	16.0796
2.4214	16.0926
2.4202	16.1068
2.4191	16.1215
2.418	16.138
2.4169	16.1544
2.4157	16.1669
2.4146	16.175
2.4135	16.1783
2.4124	16.179
2.4112	16.1771
2.4101	16.1733
2.409	16.1705
2.4079	16.1681
2.4068	16.1641
2.4056	16.1591
2.4045	16.1534
2.4034	16.1482
2.4023	16.1435
2.4012	16.1411
2.4001	16.1435
2.399	16.1501
2.3979	16.1584
2.3967	16.1674
2.3956	16.1764
2.3945	16.1852
2.3934	16.1923
2.3923	16.198
2.3912	16.2036
2.3901	16.2081
2.389	16.2098
2.3879	16.2079
2.3868	16.2025
2.3857	16.1946
2.3846	16.1833
2.3835	16.17
2.3824	16.1568
2.3813	16.1437
2.3802	16.1307
2.3791	16.117
2.3781	16.1018
2.377	16.0843
2.3759	16.0623
2.3748	16.0353
2.3737	16.0028
2.3726	15.9656
2.3715	15.9263
2.3704	15.8856
2.3694	15.8425
2.3683	15.7947
2.3672	15.7411
2.3661	15.6784
2.365	15.604
2.364	15.5188
2.3629	15.4245
2.3618	15.3222
2.3607	15.2138
2.3597	15.1029
2.3586	14.994
2.3575	14.886
2.3564	14.7799
2.3554	14.6762
2.3543	14.5736
2.3532	14.4716
2.3522	14.3712
2.3511	14.276
2.35	14.1874
2.349	14.1047
2.3479	14.0299
2.3468	13.9641
2.3458	13.9072
2.3447	13.8589
2.3436	13.8203
2.3426	13.7933
2.3415	13.7784
2.3405	13.7749
2.3394	13.782
2.3384	13.7988
2.3373	13.8244
2.3363	13.8563
2.3352	13.8921
2.3342	13.9321
2.3331	13.9781
2.3321	14.0292
2.331	14.0837
2.33	14.1405
2.3289	14.2009
2.3279	14.2629
2.3268	14.3229
2.3258	14.3797
2.3247	14.4342
2.3237	14.4848
2.3226	14.5294
2.3216	14.5682
2.3206	14.6044
2.3195	14.6395
2.3185	14.6712
2.3175	14.7006
2.3164	14.7276
2.3154	14.7501
2.3144	14.7662
2.3133	14.7764
2.3123	14.7863
2.3113	14.7979
2.3102	14.8114
2.3092	14.8285
2.3082	14.8481
2.3071	14.8678
2.3061	14.8827
2.3051	14.8943
2.3041	14.9078
2.303	14.9232
2.302	14.9407
2.301	14.9618
2.3	14.9859
2.299	15.0084
2.2979	15.0262
2.2969	15.043
2.2959	15.062
2.2949	15.0833
2.2939	15.1077
2.2929	15.1363
2.2918	15.1688
2.2908	15.201
2.2898	15.2322
2.2888	15.2635
2.2878	15.295
2.2868	15.3258
2.2858	15.3556
2.2848	15.3852
2.2838	15.4162
2.2828	15.4477
2.2818	15.4804
2.2808	15.5166
2.2798	15.5564
2.2787	15.5981
2.2777	15.6388
2.2767	15.6782
2.2757	15.7163
2.2747	15.7523
2.2738	15.7859
2.2728	15.8191
2.2718	15.8503
2.2708	15.8776
2.2698	15.9012
2.2688	15.9242
2.2678	15.9465
2.2668	15.969
2.2658	15.9934
2.2648	16.0199
2.2638	16.0462
2.2628	16.071
2.2618	16.0961
2.2609	16.1212
2.2599	16.1433
2.2589	16.1639
2.2579	16.1845
2.2569	16.2044
2.2559	16.2238
2.255	16.2446
2.254	16.2685
2.253	16.2951
2.252	16.3228
2.251	16.3514
2.2501	16.3791
2.2491	16.4045
2.2481	16.4277
2.2471	16.4483
2.2462	16.466
2.2452	16.48
2.2442	16.4902
2.2433	16.4975
2.2423	16.5044
2.2413	16.5141
2.2403	16.5295
2.2394	16.5494
2.2384	16.5695
2.2374	16.5854
2.2365	16.5968
2.2355	16.6058
2.2345	16.6157
2.2336	16.6299
2.2326	16.6489
2.2317	16.6683
2.2307	16.6825
2.2297	16.6894
2.2288	16.6917
2.2278	16.6936
2.2269	16.6976
2.2259	16.7059
2.225	16.7185
2.224	16.7317
2.2231	16.7441
2.2221	16.7547
2.2211	16.7632
2.2202	16.7687
2.2192	16.7715
2.2183	16.7718
2.2173	16.7725
2.2164	16.7775
2.2155	16.7891
2.2145	16.8054
2.2136	16.8215
2.2126	16.8348
2.2117	16.844
2.2107	16.8464
2.2098	16.8449
2.2088	16.8442
2.2079	16.8475
2.207	16.8528
2.206	16.8573
2.2051	16.8613
2.2041	16.8644
2.2032	16.8641
2.2023	16.862
2.2013	16.861
2.2004	16.8627
2.1995	16.8655
2.1985	16.8684
2.1976	16.871
2.1967	16.8734
2.1957	16.8748
2.1948	16.8745
2.1939	16.8734
2.193	16.8717
2.192	16.8693
2.1911	16.8665
2.1902	16.8644
2.1893	16.8622
2.1883	16.8587
2.1874	16.8539
2.1865	16.8485
2.1856	16.8419
2.1846	16.8355
2.1837	16.8319
2.1828	16.831
2.1819	16.8317
2.181	16.8331
2.18	16.8352
2.1791	16.8359
2.1782	16.8326
2.1773	16.8258
2.1764	16.8175
2.1755	16.8066
2.1746	16.7966
2.1736	16.7895
2.1727	16.7853
2.1718	16.7834
2.1709	16.7817
2.17	16.7782
2.1691	16.7703
2.1682	16.7573
2.1673	16.745
2.1664	16.7353
2.1655	16.7291
2.1646	16.7299
2.1637	16.7344
2.1628	16.7379
2.1619	16.7362
2.161	16.7299
2.1601	16.7225
2.1592	16.7142
2.1583	16.7085
2.1574	16.7092
2.1565	16.7152
2.1556	16.7225
2.1547	16.7299
2.1538	16.736
2.1529	16.7389
2.152	16.736
2.1511	16.731
2.1502	16.7272
2.1493	16.7263
2.1484	16.7291
2.1475	16.737
2.1466	16.7479
2.1458	16.7573
2.1449	16.763
2.144	16.767
2.1431	16.7682
2.1422	16.7675
2.1413	16.7685
2.1404	16.7718
2.1396	16.7758
2.1387	16.7801
2.1378	16.7843
2.1369	16.7888
2.136	16.7919
2.1352	16.7957
2.1343	16.8018
2.1334	16.8082
2.1325	16.8134
2.1316	16.8198
2.1308	16.8269
2.1299	16.8333
2.129	16.8364
2.1281	16.8367
2.1273	16.8343
2.1264	16.8269
2.1255	16.8184
2.1247	16.8137
2.1238	16.8137
2.1229	16.8165
2.122	16.8191
2.1212	16.8198
2.1203	16.8182
2.1194	16.8123
2.1186	16.8037
2.1177	16.7959
2.1168	16.7914
2.116	16.79
2.1151	16.7902
2.1143	16.7928
2.1134	16.7997
2.1125	16.8066
2.1117	16.8101
2.1108	16.8118
2.11	16.8134
2.1091	16.8134
2.1082	16.8097
2.1074	16.8047
2.1065	16.8026
2.1057	16.8002
2.1048	16.7959
2.104	16.7931
2.1031	16.7943
2.1023	16.7976
2.1014	16.7992
2.1005	16.7988
2.0997	16.7973
2.0988	16.7928
2.098	16.7843
2.0971	16.7763
2.0963	16.7708
2.0955	16.7682
2.0946	16.7675
2.0938	16.7696
2.0929	16.7748
2.0921	16.7822
2.0912	16.7879
2.0904	16.7905
2.0895	16.7898
2.0887	16.7862
2.0879	16.7808
2.087	16.7765
2.0862	16.7744
2.0853	16.7706
2.0845	16.7708
2.0837	16.7654
2.0828	16.7523
2.082	16.7621
2.0812	16.7182
2.0803	16.7126
2.0795	16.7424
2.076	16.6567
2.072	16.6756
2.068	16.6923
2.064	16.6379
2.06	16.6437
2.056	16.6
2.052	16.6289
2.048	16.7434
2.044	16.6749
2.04	16.6323
2.036	16.5781
2.032	16.5532
2.028	16.4711
2.024	16.4811
2.02	16.4736
2.016	16.431
2.012	16.3731
2.008	16.2808
2.004	16.2612
2	16.1682
1.996	16.0837
1.992	16.1003
1.988	16.2578
1.984	16.1382
1.98	16.115
1.976	16.1092
1.972	16.1021
1.968	16.0622
1.964	16.1137
1.96	15.9561
1.956	15.9503
1.952	16.0024
1.948	15.9551
1.944	15.9265
1.94	15.8233
1.936	15.7669
1.932	15.798
1.928	15.8799
1.924	15.7857
1.92	15.7208
1.916	15.7915
1.912	15.6181
1.908	15.6422
1.904	15.7218
1.9	15.7236
1.896	15.7288
1.892	15.816
1.888	15.716
1.884	15.7933
1.88	15.9102
1.876	15.8437
1.872	15.9477
1.868	15.8648
1.864	15.8363
1.86	15.8494
1.856	15.8414
1.852	15.8615
1.848	15.9794
1.844	16.0002
1.84	15.9446
1.836	15.8806
1.832	15.8953
1.828	15.9217
1.824	15.7461
1.82	15.709
1.816	15.8041
1.812	15.7019
1.808	15.6051
1.804	15.758
1.8	15.6673
1.796	15.7357
1.792	15.6947
1.788	15.6768
1.784	15.5761
1.78	15.5089
1.776	15.3021
1.772	15.2757
1.768	15.2757
1.764	15.2392
1.76	15.3847
1.756	15.1863
1.752	15.2331
1.748	15.3557
1.744	15.1901
1.74	15.2488
1.736	15.2975
1.732	15.1972
1.728	15.248
1.724	15.3133
1.72	15.3177
1.716	15.2135
1.712	15.0735
1.708	15.0098
1.704	15.1383
1.7	15.0363
1.696	15.2296
1.692	15.0268
1.688	14.9949
1.684	14.9333
1.68	14.8442
1.676	14.9737
1.672	14.8989
1.668	14.9647
1.664	14.922
1.66	14.7673
1.656	14.8396
1.652	14.8343
1.648	14.8524
1.644	14.7507
1.64	14.7221
1.636	14.5818
1.632	14.5664
1.628	14.5988
1.624	14.6404
1.62	14.5673
1.616	14.5695
1.612	14.5527
1.608	14.4312
1.604	14.3664
1.6	14.6244
1.596	14.4019
1.592	14.5125
1.588	14.5125
1.584	14.5671
1.58	14.4866
1.576	14.4063
1.572	14.2369
1.568	14.2245
1.564	14.3192
1.56	14.1721
1.556	14.1199
1.552	14.0876
1.548	14.2039
1.544	14.023
1.54	14.0083
1.536	14.0722
1.532	14.0721
1.528	14.0347
1.524	13.9922
1.52	14.0238
1.516	13.971
1.512	13.9911
1.508	14.0316
1.504	14.0238
1.5	13.9063
1.496	13.8316
1.492	13.8548
1.488	13.7101
1.484	13.7114
1.48	13.6349
1.476	13.6491
1.472	13.5722
1.468	13.6162
1.464	13.6162
1.46	13.6254
1.456	13.5505
1.452	13.4509
1.448	13.436
1.444	13.4085
1.44	13.3893
1.436	13.4132
1.432	13.3662
1.428	13.324
1.424	13.334
1.42	13.309
1.416	13.3992
1.412	13.3655
1.408	13.2138
1.404	13.2817
1.4	13.2638
1.396	13.2393
1.392	13.1938
1.388	13.0732
1.384	13.1447
1.38	13.1591
1.376	13.1956
1.372	13.1974
1.368	13.1325
1.364	13.0944
1.36	12.9899
1.356	12.9696
1.352	13.0845
1.348	13.104
1.344	13.0557
1.34	13.025
1.336	12.9965
1.332	12.8596
1.328	12.8552
1.324	12.769
1.32	12.7648
1.316	12.7318
1.312	12.7732
1.308	12.6916
1.304	12.7656
1.3	12.8319
1.296	12.7283
1.292	12.7163
1.288	12.7042
1.284	12.6798
1.28	12.6887
1.276	12.5028
1.272	12.55
1.268	12.3884
1.264	12.46
1.26	12.3763
1.256	12.4518
1.252	12.5626
1.248	12.3216
1.244	12.2768
1.24	12.2098
1.236	12.2268
1.232	12.3273
1.228	12.1
1.224	12.284
1.22	12.2489
1.216	12.1421
1.212	12.1476
1.208	12.1622
1.204	12.2432
1.2	12.172
1.196	12.1489
1.192	12.1202
1.188	12.0994
1.184	12.0994
1.18	12.0956
1.176	12.0079
1.172	12.0451
1.168	11.9982
1.164	12.06
1.16	12.0249
1.156	12.0286
1.152	11.8514
1.148	11.7837
1.144	11.7337
1.14	11.7786
1.136	11.8127
1.132	11.7822
1.128	11.6779
1.124	11.7678
1.12	11.7482
1.116	11.7084
1.112	11.7032
1.108	11.7139
1.104	11.7481
1.1	11.5422
1.096	11.6378
1.092	11.6378
1.088	11.6791
1.084	11.5956
1.08	11.5394
1.076	11.5168
1.072	11.4744
1.068	11.5513
1.064	11.5974
1.06	11.5545
1.056	11.5579
1.052	11.5649
1.048	11.4518
1.044	11.4025
1.04	11.3451
1.036	11.3951
1.032	11.3485
1.028	11.3829
1.024	11.3409
1.02	11.1519
1.016	11.353
1.012	11.3006
1.008	11.2858
1.004	11.2492
1	11.2144
0.996	11.2001
0.992	11.2066
0.988	11.1935
0.984	11.2012
0.98	11.2273
0.976	11.2755
0.972	11.2426
0.968	11.2426
0.964	11.1179
0.96	11.0364
0.956	11.0384
0.952	10.966
0.948	11.0528
0.944	11.0024
0.94	10.9641
0.936	11.0379
0.932	11.0479
0.928	10.9614
0.924	10.9447
0.92	10.9447
0.916	10.9997
0.912	11.028
0.908	11.0164
0.904	10.968
0.9	10.9428
0.896	10.9399
0.892	10.9732
0.888	10.9279
0.884	10.8715
0.88	10.826
0.876	10.8422
0.872	10.8454
0.868	10.8438
0.864	10.7798
0.86	10.8038
0.856	10.743
0.852	10.7658
0.848	10.8111
0.844	10.7446
0.84	10.7142
0.836	10.7778
0.832	10.7712
0.828	10.7679
0.824	10.7389
0.82	10.7884
0.816	10.775
0.812	10.6239
0.808	10.6321
0.804	10.7616
0.8	10.7404
0.799	10.7367
0.798	10.7386
0.797	10.8538
0.796	10.8067
0.795	10.7512
0.794	10.7152
0.793	10.6817
0.792	10.7273
0.791	10.8047
0.79	10.74
0.789	10.846
0.788	10.7911
0.787	10.6171
0.786	10.6483
0.785	10.6852
0.784	10.6519
0.783	10.7426
0.782	10.6134
0.781	10.6592
0.78	10.67
0.779	10.7336
0.778	10.6928
0.777	10.606
0.776	10.6057
0.775	10.6461
0.774	10.5773
0.773	10.6209
0.772	10.6542
0.771	10.6278
0.77	10.5709
0.769	10.6354
0.768	10.5424
0.767	10.581
0.766	10.6405
0.765	10.6304
0.764	10.6304
0.763	10.6065
0.762	10.504
0.761	10.4941
0.76	10.5213
0.759	10.5648
0.758	10.5648
0.757	10.5597
0.756	10.5669
0.755	10.541
0.754	10.5026
0.753	10.4765
0.752	10.4965
0.751	10.4915
0.75	10.4739
0.749	10.4789
0.748	10.4789
0.747	10.4193
0.746	10.4915
0.745	10.4053
0.744	10.3906
0.743	10.3135
0.742	10.3283
0.741	10.3695
0.74	10.408
0.739	10.408
0.738	10.493
0.737	10.3744
0.736	10.3092
0.735	10.3695
0.734	10.3867
0.733	10.3706
0.732	10.417
0.731	10.4145
0.73	10.4534
0.729	10.3653
0.728	10.4095
0.727	10.4331
0.726	10.3632
0.725	10.3833
0.724	10.362
0.723	10.3278
0.722	10.294
0.721	10.3258
0.72	10.3267
0.719	10.292
0.718	10.4527
0.717	10.3382
0.716	10.3382
0.715	10.3332
0.714	10.5811
0.713	10.4199
0.712	10.3441
0.711	10.3441
0.71	10.2786
0.709	10.2082
0.708	10.2824
0.707	10.3376
0.706	10.366
0.705	10.2535
0.704	10.203
0.703	10.266
0.702	10.1646
0.701	10.261
0.7	10.3815
0.699	10.3734
0.698	10.3494
0.697	10.3052
0.696	10.3142
0.695	10.2417
0.694	10.2792
0.693	10.2818
0.692	10.18
0.691	10.1875
0.69	10.1825
0.689	10.1775
0.688	10.1378
0.687	10.1695
0.686	10.2171
0.685	10.2494
0.684	10.2247
0.683	10.2675
0.682	10.2402
0.681	10.2076
0.68	10.1898
0.679	10.1473
0.678	10.1949
0.677	10.17
0.676	10.2076
0.675	10.135
0.674	10.1825
0.673	10.1675
0.672	10.185
0.671	10.2571
0.67	10.1347
0.669	10.2046
0.668	10.1424
0.667	10.1569
0.666	10.2091
0.665	10.2143
0.664	10.2299
0.663	10.2175
0.662	10.2404
0.661	10.2026
0.66	10.2483
0.659	10.173
0.658	10.2183
0.657	10.0401
0.656	10.2131
0.655	10.0625
0.654	10.115
0.653	10.065
0.652	10.06
0.651	10.1325
0.65	10.1799
0.649	10.1449
0.648	10.0176
0.647	10.0451
0.646	10.0499
0.645	10.0473
0.644	10.0127
0.643	10.0701
0.642	10.065
0.641	10.0499
0.64	10.0996
0.639	10.1826
0.638	10.098
0.637	10.0954
0.636	10.0825
0.635	10.1027
0.634	10.1331
0.633	10.0503
0.632	10.0928
0.631	10.0127
0.63	10.0427
0.629	10.0351
0.628	10.0076
0.627	10.1431
0.626	10.0702
0.625	10.0075
0.624	10.1079
0.623	10.0155
0.622	10.0129
0.621	10.0252
0.62	10.078
0.619	10.1053
0.618	10.0125
0.617	10.0301
0.616	9.9426
0.615	10.0202
0.614	10.0053
0.613	9.9299
0.612	9.9398
0.611	10.0155
0.61	10.0053
0.609	10.0252
0.608	10.0278
0.607	9.92
0.606	9.9401
0.605	9.9452
0.604	9.9046
0.603	9.912
0.602	9.9172
0.601	9.9703
0.6	9.9056
0.599	10.0146
0.598	9.9676
0.597	10.0017
0.596	9.9474
0.595	9.9344
0.594	9.9778
0.593	9.9405
0.592	9.8402
0.591	9.8824
0.59	9.8799
0.589	9.928
0.588	9.8045
0.587	9.8443
0.586	9.9093
0.585	9.9457
0.584	9.8651
0.583	9.8676
0.582	9.9625
0.581	9.8883
0.58	9.8553
0.579	9.8858
0.578	9.8957
0.577	9.9081
0.576	9.9737
0.575	9.9297
0.574	9.8309
0.573	9.8948
0.572	9.9227
0.571	9.893
0.57	9.8282
0.569	9.8754
0.568	9.8654
0.567	9.955
0.566	9.96
0.565	9.8952
0.564	9.9027
0.563	9.8626
0.562	9.9152
0.561	9.8473
0.56	9.87
0.559	9.885
0.558	9.6815
0.557	9.6979
0.556	9.6681
0.555	9.707
0.554	9.8002
0.553	9.7206
0.552	9.7891
0.551	9.7985
0.55	9.7873
0.549	9.7246
0.548	9.7176
0.547	9.5619
0.546	9.692
0.545	9.7688
0.544	9.761
0.543	9.7538
0.542	9.6756
0.541	9.6756
0.54	9.6756
0.539	9.7105
0.538	9.7245
0.537	9.6674
0.536	9.7643
0.535	9.6606
0.534	9.7362
0.533	9.7714
0.532	9.6324
0.531	9.6697
0.53	9.6368
0.529	9.5907
0.528	9.7152
0.527	9.5205
0.526	9.5291
0.525	9.5312
0.524	9.5951
0.523	9.5091
0.522	9.6368
0.521	9.6526
0.52	9.5441
0.519	9.6164
0.518	9.5284
0.517	9.5082
0.516	9.5527
0.515	9.5484
0.514	9.5549
0.513	9.5518
0.512	9.5987
0.511	9.6031
0.51	9.587
0.509	9.645
0.508	9.5657
0.507	9.4976
0.506	9.5591
0.505	9.5284
0.504	9.5284
0.503	9.4964
0.502	9.4495
0.501	9.511
0.5	9.5604
0.499	9.4904
0.498	9.4469
0.497	9.4969
0.496	9.4907
0.495	9.5858
0.494	9.4969
0.493	9.5383
0.492	9.524
0.491	9.5384
0.49	9.5136
0.489	9.526
0.488	9.4515
0.487	9.4847
0.486	9.3449
0.485	9.4604
0.484	9.4784
0.483	9.4757
0.482	9.4404
0.481	9.5071
0.48	9.4276
0.479	9.3704
0.478	9.3535
0.477	9.3869
0.476	9.4596
0.475	9.4673
0.474	9.3586
0.473	9.261
0.472	9.2911
0.471	9.4873
0.47	9.2593
0.469	9.3123
0.468	9.2893
0.467	9.2169
0.466	9.2654
0.465	9.2597
0.464	9.2752
0.463	9.2598
0.462	9.1975
0.461	9.1959
0.46	9.1607
0.459	9.3118
0.458	9.3182
0.457	9.2235
0.456	9.2601
0.455	9.0732
0.454	9.1375
0.453	9.2087
0.452	9.1054
0.451	9.1218
0.45	9.0606
0.449	9.1353
0.448	9.0631
0.447	9.1057
0.446	9.0158
0.445	9.1044
0.444	9.127
0.443	8.9787
0.442	9.0512
0.441	9.0028
0.44	8.9825
0.439	8.9748
0.438	8.8368
0.437	8.8756
0.436	8.8096
0.435	8.7253
0.434	8.7968
0.433	8.751
0.432	8.8318
0.431	8.7945
0.43	8.8302
0.429	8.7755
0.428	8.7625
0.427	8.8324
0.426	8.7775
0.425	8.6364
0.424	8.5306
0.423	8.5325
0.422	8.5035
0.421	8.542
0.42	8.5233
0.419	8.5915
0.418	8.6221
0.417	8.6181
0.416	8.6511
0.415	8.6308
0.414	8.5242
0.413	8.5239
0.412	8.5597
0.411	8.456
0.41	8.4884
0.409	8.3837
0.408	8.4176
0.407	8.4526
0.406	8.3468
0.405	8.4153
0.404	8.3439
0.403	8.3439
0.402	8.2751
0.401	8.325
0.4	8.2903
