Name: Banded Hornfels 
Type:  Rocks
Class: Metamorphic 
Subclass: Hornfels 
Particle Size:  500-1500 Micrometer
Sample No.:  hornfel1.doc
Owner:  JHU
Wavelength Range:  All
Origin:  Sample No. 470, The Hunt and Salisbury Collection at the U.S. 
Geological Survey, Denver, Co.
Description:  This is a fine-grained to microcrystalline sample showing relict 
bedding.  It consists of a pleochroic greenish brown phase--probably epidote; and 
cordierite or andalusite.  The latter occur as the coarser grains in veins parallel to 
the bedding, as well as finer material along with the epidote in the groundmass.  
In addition there are scattered grains of calcite and opaques, along with veinlets 
of carbonaceous material which again parallel the bedding.  
Measurement:  Directional (10 Degree) Hemispherical Reflectance
First Column:  X
Second Column:  Y  
X Units:  Wavelength (micrometers)
Y Units:  Reflectance (percent)
First X Value: 14.9831
Last X Value:  0.4000
Number of X Values: 2868
Additional Information:  None

14.9831	2.1958
14.9399	1.6681
14.897	1.149	
14.8543	1.0685
14.8119	1.4967
14.7697	1.4512
14.7277	1.2229
14.686	1.1168
14.6445	1.0666
14.6033	1.3494
14.5214	1.4346
14.4809	1.3001
14.4405	1.1471
14.4004	1.3584
14.3605	1.5241
14.3209	1.5322
14.2814	1.5492
14.2422	1.5253
14.2032	1.6681
14.1643	1.6634
14.1258	1.6305
14.0874	1.6968
14.0492	1.7141
14.0112	1.6156
13.9734	1.6203
13.9359	1.6646
13.8985	1.7029
13.8614	1.688
13.8244	1.71
13.7876	1.7567
13.7511	1.7747
13.7147	1.7785
13.6785	1.8197
13.6425	1.805
13.6067	1.7674
13.5711	1.7333
13.5356	1.7482
13.5004	1.7827
13.4653	1.8585
13.4304	1.8983
13.3957	1.8827
13.3612	1.9
13.3269	1.9478
13.2927	1.94
13.2587	1.9658
13.2249	1.9592
13.1912	1.9533
13.1577	1.9615
13.1244	2.0028
13.0913	2.0241
13.0583	2.0376
13.0255	2.0132
12.9929	1.949
12.9604	1.9315
12.9281	1.9623
12.8959	2.0016
12.8639	2.0409
12.8321	2.0271
12.8004	2.0248
12.7688	2.0845
12.7375	2.1233
12.7063	2.1226
12.6752	2.1759
12.6443	2.2218
12.6135	2.24
12.5829	2.2592
12.5524	2.3016
12.5221	2.3298
12.4919	2.3843
12.4619	2.4307
12.432	2.4465
12.4023	2.4686
12.3727	2.5268
12.3432	2.6021
12.3139	2.6128
12.2847	2.6625
12.2557	2.7461
12.2268	2.7696
12.198	2.8084
12.1694	2.8442
12.1409	2.8704
12.1125	2.9735
12.0843	3.0521
12.0562	3.0959
12.0282	3.1392
12.0003	3.1935
11.9726	3.2669
11.945	3.345
11.9176	3.3798
11.8903	3.4139
11.8631	3.503
11.836	3.5603
11.809	3.6368
11.7822	3.7289
11.7555	3.8705
11.7289	4.0055
11.7024	4.1263
11.676	4.2579
11.6498	4.37
11.6237	4.4813
11.5977	4.5698
11.5718	4.6676
11.546	4.8012
11.5203	4.8865
11.4948	4.9502
11.4694	5.0622
11.444	5.191
11.4188	5.3194
11.3937	5.4077
11.3688	5.5086
11.3439	5.6014
11.3191	5.6296
11.2944	5.6696
11.2699	5.7184
11.2455	5.7177
11.2211	5.7087
11.1969	5.7141
11.1727	5.6987
11.1487	5.7298
11.1248	5.7939
11.101	5.8477
11.0773	5.9055
11.0536	5.927
11.0301	5.9104
11.0067	5.9535
10.9834	6.0161
10.9602	6.0362
10.937	6.0866
10.914	6.1089
10.8911	6.0781
10.8682	6.084
10.8455	6.0949
10.8229	6.0724
10.8003	5.9995
10.7779	5.9258
10.7555	5.8117
10.7332	5.6753
10.7111	5.5898
10.689	5.5775
10.667	5.6253
10.6451	5.7106
10.6233	5.8067
10.6015	5.9081
10.5799	5.9656
10.5584	6.0225
10.5369	6.1049
10.5155	6.1757
10.4942	6.259
10.473	6.3905
10.4519	6.4845
10.4309	6.5963
10.4099	6.6865
10.3891	6.6976
10.3683	6.66
10.3476	6.6289
10.327	6.5589
10.3065	6.4606
10.286	6.3978
10.2656	6.3102
10.2454	6.197
10.2251	6.089
10.205	6.0083
10.185	5.9524
10.165	5.8988
10.1451	5.8188
10.1253	5.7939
10.1056	5.8058
10.0859	5.8235
10.0663	5.8835
10.0468	5.9637
10.0274	6.1148
10.008	6.3002
9.9887	6.4367
9.9695	6.5347
9.9504	6.6491
9.9313	6.7388
9.9123	6.7961
9.8934	6.835
9.8746	6.8447
9.8558	6.8056
9.8371	6.7587
9.8185	6.704
9.7999	6.6491
9.7814	6.575
9.763	6.4906
9.7447	6.4224
9.7264	6.3535
9.7082	6.3509
9.69	6.3497
9.6719	6.314
9.6539	6.2943
9.636	6.2699
9.6181	6.3057
9.6003	6.3263
9.5825	6.2979
9.5649	6.3078
9.5472	6.3287
9.5297	6.3606
9.5122	6.4333
9.4948	6.5394
9.4774	6.6744
9.4601	6.852
9.4429	6.9378
9.4257	7.0142
9.4086	7.1409
9.3916	7.2271
9.3746	7.3001
9.3577	7.3804
9.3408	7.4313
9.324	7.4261
9.3073	7.4796
9.2906	7.504
9.274	7.4907
9.2574	7.4786
9.2409	7.4277
9.2245	7.3617
9.2081	7.3382
9.1918	7.3252
9.1755	7.292
9.1593	7.2942
9.1431	7.3072
9.127	7.3107
9.111	7.3155
9.095	7.3437
9.0791	7.351
9.0632	7.3228
9.0474	7.333
9.0316	7.3212
9.0159	7.2972
9.0003	7.288
8.9847	7.2248
8.9691	7.1492
8.9536	7.0997
8.9382	6.9984
8.9228	6.8601
8.9075	6.7564
8.8922	6.6671
8.877	6.5468
8.8618	6.4466
8.8467	6.3452
8.8316	6.2733
8.8166	6.1897
8.8016	6.0736
8.7867	5.9512
8.7718	5.8254
8.757	5.6672
8.7422	5.5391
8.7275	5.3932
8.7129	5.2367
8.6982	5.0752
8.6837	4.9343
8.6692	4.8341
8.6547	4.7482
8.6403	4.6565
8.6259	4.5774
8.6116	4.4903
8.5973	4.4289
8.583	4.4012
8.5688	4.3515
8.5547	4.2828
8.5406	4.217
8.5266	4.1135
8.5126	4.0318
8.4986	3.9766
8.4847	3.8994
8.4708	3.7628
8.457	3.6536
8.4432	3.6062
8.4295	3.5435
8.4158	3.4405
8.4022	3.3327
8.3886	3.2413
8.375	3.1774
8.3615	3.1106
8.3481	3.0417
8.3347	2.9723
8.3213	2.8693
8.3079	2.7594
8.2946	2.6519
8.2814	2.5346
8.2682	2.4551
8.255	2.3795
8.2419	2.3177
8.2288	2.264
8.2158	2.2111
8.2028	2.1538
8.1898	2.084
8.1769	2.0238
8.164	1.9952
8.1512	1.9698
8.1384	1.9315
8.1256	1.89
8.1129	1.8673
8.1002	1.8614
8.0876	1.85
8.075	1.8019
8.0624	1.7823
8.0499	1.7884
8.0374	1.7958
8.025	1.7913
8.0126	1.8171
8.0002	1.8173
7.9879	1.8026
7.9756	1.8079
7.9634	1.7962
7.9512	1.7894
7.939	1.788
7.9268	1.7877
7.9147	1.7868
7.9027	1.761
7.8906	1.7586
7.8786	1.7719
7.8667	1.8031
7.8548	1.8197
7.8429	1.8121
7.831	1.8071
7.8192	1.8045
7.8075	1.8095
7.7957	1.8256
7.784	1.8131
7.7723	1.8282
7.7607	1.846
7.7491	1.8389
7.7375	1.8325
7.726	1.8422
7.7145	1.8626
7.7031	1.8536
7.6916	1.8254
7.6802	1.7967
7.6689	1.8069
7.6575	1.8206
7.6462	1.8126
7.635	1.7936
7.6238	1.7854
7.6126	1.7787
7.6014	1.7565
7.5903	1.7527
7.5792	1.7674
7.5681	1.7591
7.5571	1.7782
7.5461	1.7927
7.5351	1.7901
7.5242	1.81
7.5133	1.8436
7.5024	1.8647
7.4916	1.8697
7.4807	1.8917
7.47	1.8784
7.4592	1.8595
7.4485	1.8581
7.4378	1.8765
7.4272	1.9071
7.4165	1.9121
7.4059	1.908
7.3954	1.9132
7.3848	1.918
7.3743	1.9435
7.3639	1.9604
7.3534	1.9469
7.343	1.931
7.3326	1.9149
7.3223	1.8986
7.3119	1.8955
7.3016	1.918
7.2914	1.9296
7.2811	1.9407
7.2709	1.9734
7.2607	1.9769
7.2506	1.9864
7.2404	2.0035
7.2303	2.0219
7.2203	2.0849
7.2102	2.1214
7.2002	2.1503
7.1902	2.2145
7.1803	2.2635
7.1703	2.2983
7.1604	2.3419
7.1506	2.3937
7.1407	2.438
7.1309	2.4877
7.1211	2.5728
7.1113	2.7099
7.1016	2.8496
7.0919	2.9285
7.0822	2.9936
7.0725	3.0817
7.0629	3.1437
7.0533	3.1783
7.0437	3.18
7.0341	3.1975
7.0246	3.2207
7.0151	3.2316
7.0056	3.2579
6.9962	3.3
6.9867	3.2988
6.9773	3.3161
6.9679	3.3488
6.9586	3.3505
6.9493	3.3607
6.94	3.3765
6.9307	3.3727
6.9214	3.3948
6.9122	3.4002
6.903	3.3921
6.8938	3.4215
6.8847	3.4395
6.8755	3.4426
6.8664	3.4428
6.8573	3.4189
6.8483	3.4149
6.8393	3.409
6.8302	3.4113
6.8213	3.4367
6.8123	3.4459
6.8034	3.4476
6.7944	3.4428
6.7855	3.4521
6.7767	3.4682
6.7678	3.4554
6.759	3.4779
6.7502	3.5049
6.7414	3.493
6.7327	3.4852
6.7239	3.508
6.7152	3.5127
6.7065	3.5001
6.6979	3.5075
6.6892	3.5245
6.6806	3.516
6.672	3.5051
6.6634	3.5134
6.6549	3.5477
6.6464	3.5513
6.6378	3.5373
6.6294	3.5544
6.6209	3.5757
6.6124	3.5811
6.604	3.5733
6.5956	3.5906
6.5872	3.6129
6.5789	3.588
6.5705	3.5764
6.5622	3.5776
6.5539	3.5797
6.5456	3.5577
6.5374	3.5345
6.5292	3.5435
6.5209	3.5245
6.5128	3.4885
6.5046	3.4611
6.4964	3.4438
6.4883	3.4182
6.4802	3.4296
6.4721	3.3955
6.464	3.3341
6.456	3.273
6.448	3.2131
6.4399	3.1404
6.432	3.0537
6.424	2.9626
6.416	2.8683
6.4081	2.7842
6.4002	2.7288
6.3923	2.6817
6.3844	2.641
6.3766	2.5976
6.3687	2.5479
6.3609	2.5017
6.3531	2.457
6.3454	2.4184
6.3376	2.3817
6.3299	2.3274
6.3221	2.2938
6.3144	2.2815
6.3068	2.2403
6.2991	2.2197
6.2914	2.2066
6.2838	2.1898
6.2762	2.1946
6.2686	2.1766
6.2611	2.1555
6.2535	2.1548
6.246	2.1387
6.2385	2.1062
6.231	2.1067
6.2235	2.1323
6.216	2.1129
6.2086	2.0868
6.2011	2.0731
6.1937	2.0594
6.1863	2.0575
6.179	2.0579
6.1716	2.0522
6.1643	2.0421
6.157	2.0324
6.1496	2.0191
6.1424	2.0054
6.1351	1.9949
6.1278	2.0016
6.1206	1.9985
6.1134	1.9971
6.1062	1.9864
6.099	1.981
6.0918	1.9874
6.0847	1.9885
6.0776	1.9855
6.0704	1.989
6.0633	2.0281
6.0563	2.053
6.0492	2.0352
6.0421	2.0335
6.0351	2.0402
6.0281	2.0492
6.0211	2.0783
6.0141	2.101
6.0071	2.0916
6.0002	2.0814
5.9932	2.1204
5.9863	2.1576
5.9794	2.1922
5.9725	2.2078
5.9657	2.1946
5.9588	2.237
5.952	2.2886
5.9451	2.3078
5.9383	2.3288
5.9315	2.3637
5.9247	2.3975
5.918	2.4174
5.9112	2.4612
5.9045	2.5188
5.8978	2.5811
5.8911	2.5853
5.8844	2.5863
5.8777	2.6057
5.8711	2.6182
5.8644	2.6168
5.8578	2.6249
5.8512	2.6381
5.8446	2.667
5.838	2.6748
5.8314	2.671
5.8249	2.6796
5.8184	2.7168
5.8118	2.7321
5.8053	2.7321
5.7988	2.7442
5.7923	2.7554
5.7859	2.7568
5.7794	2.7854
5.773	2.8034
5.7666	2.8089
5.7602	2.811
5.7538	2.8105
5.7474	2.8354
5.741	2.8553
5.7347	2.8553
5.7283	2.8655
5.722	2.8861
5.7157	2.9247
5.7094	2.9403
5.7031	2.928
5.6969	2.9415
5.6906	2.9671
5.6844	2.9893
5.6782	3.0095
5.6719	3.0251
5.6657	3.0372
5.6596	3.0443
5.6534	3.063
5.6472	3.0857
5.6411	3.1115
5.6349	3.1134
5.6288	3.1011
5.6227	3.1023
5.6166	3.0992
5.6106	3.0634
5.6045	3.0073
5.5984	2.9401
5.5924	2.861
5.5864	2.7745
5.5804	2.6957
5.5744	2.6755
5.5684	2.7023
5.5624	2.7345
5.5564	2.785
5.5505	2.8946
5.5445	3.0248
5.5386	3.152
5.5327	3.2669
5.5268	3.3294
5.5209	3.3775
5.5151	3.4274
5.5092	3.4535
5.5033	3.4622
5.4975	3.4897
5.4917	3.5177
5.4859	3.5276
5.4801	3.5383
5.4743	3.5674
5.4685	3.5968
5.4628	3.6159
5.457	3.6174
5.4513	3.614
5.4455	3.6086
5.4398	3.6174
5.4341	3.6129
5.4284	3.6041
5.4228	3.6195
5.4171	3.611
5.4114	3.6098
5.4058	3.6221
5.4002	3.6441
5.3945	3.6579
5.3889	3.6699
5.3833	3.6832
5.3778	3.7052
5.3722	3.7377
5.3666	3.7493
5.3611	3.7604
5.3555	3.7758
5.35	3.8061
5.3445	3.8153
5.339	3.8326
5.3335	3.844
5.328	3.8646
5.3225	3.8726
5.3171	3.8745
5.3116	3.8935
5.3062	3.8925
5.3008	3.8843
5.2954	3.885
5.29	3.8871
5.2846	3.8968
5.2792	3.9141
5.2738	3.9484
5.2684	3.9854
5.2631	4.0088
5.2578	4.0408
5.2524	4.0616
5.2471	4.077
5.2418	4.1372
5.2365	4.1874
5.2312	4.1985
5.226	4.2191
5.2207	4.2262
5.2154	4.2369
5.2102	4.2499
5.205	4.2499
5.1998	4.2456
5.1945	4.2473
5.1893	4.2286
5.1842	4.2224
5.179	4.2203
5.1738	4.2156
5.1686	4.1992
5.1635	4.1829
5.1584	4.1649
5.1532	4.1585
5.1481	4.1313
5.143	4.1168
5.1379	4.1043
5.1328	4.0827
5.1277	4.055
5.1227	4.0209
5.1176	3.9877
5.1126	3.943
5.1075	3.8923
5.1025	3.8277
5.0975	3.7902
5.0925	3.7881
5.0875	3.7746
5.0825	3.7682
5.0775	3.7836
5.0726	3.8082
5.0676	3.8288
5.0627	3.8442
5.0577	3.8852
5.0528	3.943
5.0479	3.9906
5.043	4.0455
5.038	4.1218
5.0332	4.2073
5.0283	4.2831
5.0234	4.3496
5.0185	4.4093
5.0137	4.436
5.0088	4.4758
5.004	4.535
4.9992	4.5597
4.9944	4.5814
4.9896	4.6115
4.9848	4.6196
4.98	4.6283
4.9752	4.6324
4.9704	4.6513
4.9657	4.671
4.9609	4.6721
4.9562	4.6665
4.9514	4.6892
4.9467	4.7013
4.942	4.6994
4.9373	4.7025
4.9326	4.7209
4.9279	4.7394
4.9232	4.7505
4.9186	4.7853
4.9139	4.8083
4.9092	4.8128
4.9046	4.8417
4.9	4.8438
4.8953	4.8516
4.8907	4.8834
4.8861	4.8978
4.8815	4.9153
4.8769	4.9499
4.8723	5.0044
4.8678	5.0589
4.8632	5.1254
4.8586	5.1699
4.8541	5.2173
4.8495	5.2926
4.845	5.3485
4.8405	5.3871
4.836	5.4468
4.8315	5.5313
4.827	5.5929
4.8225	5.653
4.818	5.7227
4.8135	5.7935
4.809	5.8806
4.8046	5.9888
4.8001	6.0457
4.7957	6.1037
4.7913	6.1757
4.7868	6.2292
4.7824	6.2839
4.778	6.322
4.7736	6.3474
4.7692	6.3848
4.7648	6.4293
4.7605	6.4679
4.7561	6.5176
4.7517	6.5885
4.7474	6.6593
4.7431	6.7355
4.7387	6.8291
4.7344	6.9423
4.7301	7.05
4.7258	7.1525
4.7215	7.2622
4.7172	7.3607
4.7129	7.4505
4.7086	7.5329
4.7043	7.6105
4.7	7.6747
4.6958	7.7408
4.6915	7.8038
4.6873	7.8575
4.6831	7.9203
4.6788	7.9935
4.6746	8.0581
4.6704	8.1072
4.6662	8.1718
4.662	8.235
4.6578	8.2973
4.6536	8.4077
4.6495	8.5588
4.6453	8.7146
4.6411	8.8692
4.637	9.0362
4.6328	9.2228
4.6287	9.4103
4.6246	9.5669
4.6205	9.7272
4.6163	9.8923
4.6122	10.0365
4.6081	10.2089
4.604	10.3742
4.6	10.5366
4.5959	10.7124
4.5918	10.8914
4.5877	11.0754
4.5837	11.2528
4.5796	11.4465
4.5756	11.6182
4.5716	11.7686
4.5675	11.9341
4.5635	12.0954
4.5595	12.2446
4.5555	12.4009
4.5515	12.5583
4.5475	12.7281
4.5435	12.9022
4.5395	13.0789
4.5356	13.2868
4.5316	13.5054
4.5276	13.6965
4.5237	13.8843
4.5197	14.0697
4.5158	14.2118
4.5119	14.3418
4.508	14.4683
4.504	14.5874
4.5001	14.7025
4.4962	14.8067
4.4923	14.9142
4.4884	15.011
4.4846	15.1029
4.4807	15.2083
4.4768	15.3
4.473	15.3871
4.4691	15.4724
4.4652	15.5531
4.4614	15.6085
4.4576	15.659
4.4537	15.721
4.4499	15.789
4.4461	15.8517
4.4423	15.9152
4.4385	15.9427
4.4347	15.9822
4.4309	16.0343
4.4271	16.086
4.4233	16.1395
4.4196	16.1686
4.4158	16.2013
4.412	16.2472
4.4083	16.2844
4.4045	16.3036
4.4008	16.3462
4.3971	16.4203
4.3934	16.4847
4.3896	16.5245
4.3859	16.5823
4.3822	16.6467
4.3785	16.6969
4.3748	16.7621
4.3711	16.8206
4.3674	16.8674
4.3638	16.9432
4.3601	17.0202
4.3564	17.0773
4.3528	17.1514
4.3491	17.2397
4.3455	17.3245
4.3418	17.4197
4.3382	17.5189
4.3346	17.598
4.331	17.7096
4.3273	17.8405
4.3237	17.949
4.3201	18.0617
4.3165	18.1908
4.3129	18.3132
4.3094	18.4593
4.3058	18.6026
4.3022	18.7425
4.2986	18.9114
4.2951	19.0506
4.2915	19.179
4.288	19.332
4.2844	19.4854
4.2809	19.6396
4.2774	19.7793
4.2738	19.8897
4.2703	20.006
4.2668	20.1338
4.2633	20.2565
4.2598	20.391
4.2563	20.5123
4.2528	20.6236
4.2493	20.7401
4.2458	20.8459
4.2424	20.94
4.2389	21.039
4.2354	21.1524
4.232	21.2474
4.2285	21.33
4.2251	21.4309
4.2216	21.5251
4.2182	21.6075
4.2148	21.693
4.2113	21.7667
4.2079	21.8292
4.2045	21.9064
4.2011	21.9805
4.1977	22.0345
4.1943	22.0779
4.1909	22.1435
4.1875	22.2126
4.1841	22.2635
4.1808	22.2882
4.1774	22.3223
4.174	22.3703
4.1707	22.4042
4.1673	22.4347
4.164	22.4696
4.1606	22.5105
4.1573	22.537
4.154	22.5524
4.1506	22.5569
4.1473	22.5622
4.144	22.5685
4.1407	22.5648
4.1374	22.5541
4.1341	22.5167
4.1308	22.4816
4.1275	22.4565
4.1242	22.4452
4.1209	22.4089
4.1177	22.3628
4.1144	22.3353
4.1111	22.3076
4.1079	22.2548
4.1046	22.1873
4.1014	22.1283
4.0981	22.0719
4.0949	22.0132
4.0917	21.954
4.0884	21.8837
4.0852	21.7771
4.082	21.6682
4.0788	21.5512
4.0756	21.4105
4.0724	21.2608
4.0692	21.1024
4.066	20.9435
4.0628	20.782
4.0596	20.5947
4.0565	20.3761
4.0533	20.0983
4.0501	19.7424
4.047	19.2785
4.0438	18.7414
4.0406	18.1524
4.0375	17.5578
4.0344	17.0126
4.0312	16.5378
4.0281	16.1023
4.025	15.6635
4.0218	15.2351
4.0187	14.8389
4.0156	14.4195
4.0125	13.9331
4.0094	13.3801
4.0063	12.7999
4.0032	12.2659
4.0001	11.7937
3.997	11.3821
3.994	11.0527
3.9909	10.7694
3.9878	10.5456
3.9847	10.3991
3.9817	10.3427
3.9786	10.337
3.9756	10.3706
3.9725	10.4602
3.9695	10.5544
3.9665	10.6496
3.9634	10.7815
3.9604	10.9665
3.9574	11.2113
3.9544	11.5019
3.9513	11.8462
3.9483	12.245
3.9453	12.6782
3.9423	13.1523
3.9393	13.6524
3.9363	13.9804
3.9333	14.0891
3.9304	14.1175
3.9274	14.1902
3.9244	14.3105
3.9214	14.4192
3.9185	14.5031
3.9155	14.5727
3.9126	14.6305
3.9096	14.6876
3.9067	14.7273
3.9037	14.7674
3.9008	14.8022
3.8979	14.8135
3.8949	14.841
3.892	14.8941
3.8891	14.9357
3.8862	14.9575
3.8833	14.9762
3.8804	15.0094
3.8775	15.0326
3.8746	15.0347
3.8717	15.0198
3.8688	15.0217
3.8659	15.0707
3.863	15.1126
3.8601	15.1306
3.8573	15.1773
3.8544	15.228
3.8515	15.246
3.8487	15.285
3.8458	15.38
3.843	15.4821
3.8401	15.6121
3.8373	15.7925
3.8344	16.0514
3.8316	16.3552
3.8288	16.682
3.8259	17.0105
3.8231	17.329
3.8203	17.6553
3.8175	17.9703
3.8147	18.3066
3.8119	18.6514
3.8091	19.0028
3.8063	19.4104
3.8035	19.8471
3.8007	20.283
3.7979	20.7112
3.7951	21.1522
3.7924	21.563
3.7896	21.8927
3.7868	22.1326
3.7841	22.2737
3.7813	22.3708
3.7785	22.4473
3.7758	22.5136
3.773	22.5505
3.7703	22.5759
3.7676	22.6041
3.7648	22.5986
3.7621	22.5797
3.7594	22.5759
3.7566	22.5494
3.7539	22.5101
3.7512	22.4966
3.7485	22.4947
3.7458	22.4809
3.7431	22.4769
3.7404	22.439
3.7377	22.4061
3.735	22.4146
3.7323	22.3987
3.7296	22.3677
3.7269	22.3478
3.7242	22.3142
3.7216	22.2657
3.7189	22.2465
3.7162	22.1963
3.7136	22.1541
3.7109	22.1158
3.7083	22.075
3.7056	22.0269
3.703	21.9865
3.7003	21.928
3.6977	21.8915
3.695	21.8621
3.6924	21.8058
3.6898	21.7589
3.6872	21.711
3.6845	21.6653
3.6819	21.6196
3.6793	21.573
3.6767	21.5258
3.6741	21.4441
3.6715	21.3868
3.6689	21.3508
3.6663	21.2888
3.6637	21.2353
3.6611	21.1953
3.6585	21.1526
3.656	21.0892
3.6534	21.0101
3.6508	20.9468
3.6482	20.9016
3.6457	20.8782
3.6431	20.8535
3.6406	20.7983
3.638	20.7332
3.6355	20.6854
3.6329	20.6409
3.6304	20.5703
3.6278	20.509
3.6253	20.467
3.6227	20.4275
3.6202	20.3659
3.6177	20.2897
3.6152	20.2324
3.6127	20.1822
3.6101	20.1298
3.6076	20.0398
3.6051	19.9704
3.6026	19.9174
3.6001	19.835
3.5976	19.745
3.5951	19.6533
3.5926	19.5593
3.5901	19.4743
3.5876	19.3609
3.5852	19.2157
3.5827	19.0779
3.5802	18.9109
3.5777	18.725
3.5753	18.5692
3.5728	18.4378
3.5704	18.3589
3.5679	18.3324
3.5654	18.3255
3.563	18.3075
3.5605	18.2782
3.5581	18.1981
3.5557	18.0863
3.5532	17.9779
3.5508	17.8786
3.5484	17.7534
3.5459	17.5814
3.5435	17.3932
3.5411	17.1893
3.5387	16.9392
3.5363	16.6534
3.5338	16.3626
3.5314	16.0194
3.529	15.5938
3.5266	15.1299
3.5242	14.6523
3.5218	14.1578
3.5195	13.697
3.5171	13.3093
3.5147	12.9766
3.5123	12.7201
3.5099	12.5368
3.5075	12.3606
3.5052	12.1707
3.5028	12.0212
3.5004	11.9035
3.4981	11.7797
3.4957	11.6101
3.4934	11.4605
3.491	11.3087
3.4887	11.1476
3.4863	11.0176
3.484	10.9198
3.4816	10.8289
3.4793	10.7417
3.477	10.7105
3.4746	10.7768
3.4723	10.9501
3.47	11.1955
3.4677	11.4787
3.4653	11.7792
3.463	12.0549
3.4607	12.2446
3.4584	12.353
3.4561	12.4065
3.4538	12.4406
3.4515	12.4627
3.4492	12.4563
3.4469	12.4551
3.4446	12.4324
3.4423	12.4077
3.44	12.3921
3.4378	12.3857
3.4355	12.3743
3.4332	12.3341
3.4309	12.281
3.4287	12.2588
3.4264	12.2403
3.4241	12.1846
3.4219	12.1276
3.4196	12.0757
3.4174	12.0378
3.4151	11.9867
3.4129	11.9286
3.4106	11.8917
3.4084	11.8313
3.4061	11.7844
3.4039	11.7444
3.4017	11.6693
3.3994	11.5893
3.3972	11.5457
3.395	11.513
3.3928	11.4721
3.3906	11.4058
3.3883	11.3179
3.3861	11.227
3.3839	11.1659
3.3817	11.1284
3.3795	11.0527
3.3773	10.9909
3.3751	10.9596
3.3729	10.9241
3.3707	10.8426
3.3685	10.7446
3.3663	10.6776
3.3641	10.5999
3.362	10.4902
3.3598	10.3529
3.3576	10.1944
3.3554	10.0554
3.3533	9.9536
3.3511	9.8849
3.3489	9.9105
3.3468	10.0403
3.3446	10.2707
3.3425	10.6025
3.3403	10.9776
3.3382	11.2895
3.336	11.5618
3.3339	11.7759
3.3317	11.8955
3.3296	11.9538
3.3274	11.9957
3.3253	12.0319
3.3232	12.0473
3.321	12.0343
3.3189	12.0104
3.3168	11.995
3.3147	11.9867
3.3126	11.9376
3.3104	11.8716
3.3083	11.8185
3.3062	11.7392
3.3041	11.679
3.302	11.6383
3.2999	11.5798
3.2978	11.5012
3.2957	11.4418
3.2936	11.3662
3.2915	11.3001
3.2894	11.2426
3.2874	11.1625
3.2853	11.1173
3.2832	11.0773
3.2811	10.9866
3.279	10.8829
3.277	10.8151
3.2749	10.7751
3.2728	10.7247
3.2708	10.6397
3.2687	10.5527
3.2666	10.4827
3.2646	10.4078
3.2625	10.3467
3.2605	10.2645
3.2584	10.2006
3.2564	10.1613
3.2543	10.1007
3.2523	10.0239
3.2503	9.9512
3.2482	9.862
3.2462	9.7457
3.2442	9.6914
3.2421	9.6498
3.2401	9.5778
3.2381	9.4999
3.2361	9.4473
3.234	9.3748
3.232	9.3047
3.23	9.2453
3.228	9.1868
3.226	9.1094
3.224	9.0457
3.222	9.0092
3.22	8.9365
3.218	8.8773
3.216	8.8174
3.214	8.7686
3.212	8.7264
3.21	8.6646
3.208	8.5836
3.206	8.5202
3.204	8.5114
3.2021	8.4633
3.2001	8.3885
3.1981	8.3487
3.1961	8.3004
3.1942	8.2436
3.1922	8.1924
3.1902	8.1353
3.1883	8.1003
3.1863	8.0858
3.1844	8.0588
3.1824	7.9769
3.1805	7.9236
3.1785	7.8713
3.1766	7.8107
3.1746	7.7725
3.1727	7.7209
3.1707	7.6892
3.1688	7.6707
3.1669	7.558
3.1649	7.5222
3.163	7.5071
3.1611	7.4405
3.1591	7.4017
3.1572	7.3546
3.1553	7.307
3.1534	7.2591
3.1515	7.1956
3.1495	7.1625
3.1476	7.1578
3.1457	7.1184
3.1438	7.0682
3.1419	7.0124
3.14	6.9882
3.1381	6.9517
3.1362	6.9008
3.1343	6.8648
3.1324	6.8473
3.1305	6.8224
3.1286	6.7791
3.1268	6.7471
3.1249	6.691
3.123	6.6387
3.1211	6.6289
3.1192	6.6195
3.1174	6.5825
3.1155	6.5335
3.1136	6.503
3.1117	6.4878
3.1099	6.4395
3.108	6.3751
3.1061	6.363
3.1043	6.3561
3.1024	6.3422
3.1006	6.2905
3.0987	6.2498
3.0969	6.2095
3.095	6.2015
3.0932	6.2221
3.0913	6.215
3.0895	6.1664
3.0876	6.1328
3.0858	6.1113
3.084	6.094
3.0821	6.0833
3.0803	6.0963
3.0785	6.0781
3.0766	6.0601
3.0748	6.0225
3.073	6.0092
3.0712	6.0052
3.0694	6.0068
3.0675	6.0004
3.0657	5.9763
3.0639	5.9493
3.0621	5.9114
3.0603	5.9254
3.0585	5.9377
3.0567	5.9401
3.0549	5.9502
3.0531	5.9209
3.0513	5.8714
3.0495	5.8865
3.0477	5.9067
3.0459	5.8934
3.0441	5.8984
3.0423	5.8827
3.0406	5.8702
3.0388	5.8844
3.037	5.9078
3.0352	5.9102
3.0334	5.9045
3.0317	5.8882
3.0299	5.8681
3.0281	5.918
3.0264	5.9218
3.0246	5.9284
3.0228	5.954
3.0211	5.9121
3.0193	5.8676
3.0176	5.8503
3.0158	5.8565
3.014	5.8591
3.0123	5.8458
3.0105	5.8479
3.0088	5.8467
3.007	5.8219
3.0053	5.7958
3.0036	5.8105
3.0018	5.8171
3.0001	5.8003
2.9984	5.7802
2.9966	5.7769
2.9949	5.7234
2.9932	5.7174
2.9914	5.7376
2.9897	5.6968
2.988	5.6604
2.9863	5.6727
2.9845	5.6459
2.9828	5.6232
2.9811	5.6523
2.9794	5.6504
2.9777	5.6305
2.976	5.635
2.9743	5.6078
2.9726	5.5732
2.9709	5.587
2.9692	5.6031
2.9675	5.591
2.9658	5.5713
2.9641	5.5403
2.9624	5.5368
2.9607	5.5552
2.959	5.5529
2.9573	5.5041
2.9556	5.496
2.9539	5.487
2.9523	5.4586
2.9506	5.4681
2.9489	5.4813
2.9472	5.4775
2.9455	5.4411
2.9439	5.4226
2.9422	5.4794
2.9405	5.4707
2.9389	5.4522
2.9372	5.4799
2.9355	5.461
2.9339	5.4517
2.9322	5.4797
2.9306	5.4944
2.9289	5.5008
2.9272	5.4993
2.9256	5.5083
2.9239	5.5005
2.9223	5.4548
2.9207	5.4574
2.919	5.474
2.9174	5.4768
2.9157	5.4704
2.9141	5.4472
2.9124	5.4728
2.9108	5.4948
2.9092	5.4479
2.9075	5.4515
2.9059	5.4993
2.9043	5.5204
2.9027	5.5344
2.901	5.5126
2.8994	5.4979
2.8978	5.5263
2.8962	5.5405
2.8946	5.5441
2.8929	5.5536
2.8913	5.5465
2.8897	5.5647
2.8881	5.551
2.8865	5.5495
2.8849	5.5685
2.8833	5.5548
2.8817	5.5803
2.8801	5.5903
2.8785	5.5664
2.8769	5.5491
2.8753	5.56
2.8737	5.5649
2.8721	5.5642
2.8705	5.5971
2.8689	5.6343
2.8673	5.6535
2.8658	5.6684
2.8642	5.6857
2.8626	5.6788
2.861	5.7293
2.8594	5.7828
2.8579	5.7627
2.8563	5.762
2.8547	5.7804
2.8531	5.7904
2.8516	5.8046
2.85	5.8389
2.8484	5.8505
2.8469	5.8385
2.8453	5.8354
2.8437	5.8522
2.8422	5.8254
2.8406	5.8048
2.8391	5.8316
2.8375	5.8299
2.836	5.8323
2.8344	5.8321
2.8329	5.8304
2.8313	5.7887
2.8298	5.7646
2.8282	5.7565
2.8267	5.7132
2.8252	5.7101
2.8236	5.7489
2.8221	5.7172
2.8205	5.6855
2.819	5.6724
2.8175	5.6275
2.8159	5.6154
2.8144	5.6156
2.8129	5.5775
2.8114	5.5628
2.8098	5.6035
2.8083	5.6106
2.8068	5.5498
2.8053	5.5254
2.8038	5.5441
2.8022	5.564
2.8007	5.5358
2.7992	5.5119
2.7977	5.541
2.7962	5.524
2.7947	5.4636
2.7932	5.4633
2.7917	5.451
2.7902	5.3942
2.7887	5.3532
2.7872	5.3293
2.7857	5.2954
2.7842	5.3037
2.7827	5.3194
2.7812	5.3267
2.7797	5.308
2.7782	5.3454
2.7767	5.3966
2.7752	5.3956
2.7738	5.3958
2.7723	5.4032
2.7708	5.3883
2.7693	5.3542
2.7678	5.3033
2.7664	5.253
2.7649	5.2107
2.7634	5.2178
2.7619	5.2092
2.7605	5.1927
2.759	5.2481
2.7575	5.3014
2.7561	5.3447
2.7546	5.403
2.7531	5.4096
2.7517	5.4721
2.7502	5.5659
2.7488	5.5931
2.7473	5.5436
2.7458	5.5022
2.7444	5.4648
2.7429	5.4195
2.7415	5.3667
2.74	5.3134
2.7386	5.2277
2.7371	5.1737
2.7357	5.1178
2.7343	5.0764
2.7328	5.0693
2.7314	5.0648
2.7299	5.029
2.7285	4.9809
2.7271	4.9677
2.7256	4.9783
2.7242	4.9999
2.7228	5.0023
2.7213	5.0127
2.7199	5.0551
2.7185	5.0603
2.7171	5.066
2.7156	5.0953
2.7142	5.1358
2.7128	5.1583
2.7114	5.1844
2.71	5.2114
2.7085	5.2144
2.7071	5.2059
2.7057	5.2083
2.7043	5.2028
2.7029	5.1981
2.7015	5.2005
2.7001	5.2088
2.6987	5.2381
2.6973	5.2817
2.6959	5.3485
2.6945	5.4316
2.6931	5.5282
2.6917	5.6568
2.6903	5.8643
2.6889	6.1529
2.6875	6.583
2.6861	7.2459
2.6847	8.1739
2.6833	9.5775
2.6819	11.6092
2.6805	14.2975
2.6791	17.3406
2.6778	20.1305
2.6764	22.2481
2.675	23.7178
2.6736	24.7068
2.6722	25.4418
2.6709	26.0424
2.6695	26.5494
2.6681	26.9731
2.6667	27.2502
2.6654	27.4642
2.664	27.6857
2.6626	27.8742
2.6613	27.9973
2.6599	28.0518
2.6585	28.1029
2.6572	28.1586
2.6558	28.1512
2.6545	28.1292
2.6531	28.1394
2.6517	28.1358
2.6504	28.1152
2.649	28.102
2.6477	28.0901
2.6463	28.0982
2.645	28.1472
2.6436	28.2022
2.6423	28.2517
2.6409	28.3281
2.6396	28.4477
2.6382	28.5749
2.6369	28.7063
2.6356	28.8579
2.6342	28.9938
2.6329	29.1229
2.6315	29.2347
2.6302	29.363
2.6289	29.5058
2.6275	29.6242
2.6262	29.7282
2.6249	29.8281
2.6236	29.9105
2.6222	29.9584
2.6209	30.0216
2.6196	30.0877
2.6183	30.1156
2.6169	30.167
2.6156	30.2482
2.6143	30.3179
2.613	30.4176
2.6117	30.4997
2.6103	30.5488
2.609	30.5935
2.6077	30.6546
2.6064	30.7486
2.6051	30.7974
2.6038	30.818
2.6025	30.8578
2.6012	30.9376
2.5999	31.0162
2.5986	31.0349
2.5973	31.0435
2.596	31.056
2.5947	31.0567
2.5934	31.0494
2.5921	31.034
2.5908	30.9982
2.5895	31.0032
2.5882	31.0423
2.5869	31.0222
2.5856	30.9698
2.5843	30.9738
2.583	31.0082
2.5817	31.0013
2.5805	30.9528
2.5792	30.9421
2.5779	30.9402
2.5766	30.9715
2.5753	30.9942
2.5741	30.9421
2.5728	30.9478
2.5715	31.0004
2.5702	31.0018
2.569	30.9928
2.5677	30.9577
2.5664	30.917
2.5651	30.8914
2.5639	30.891
2.5626	30.8862
2.5613	30.8912
2.5601	30.8644
2.5588	30.7962
2.5575	30.7742
2.5563	30.7522
2.555	30.6859
2.5538	30.6665
2.5525	30.6307
2.5513	30.5784
2.55	30.5298
2.5487	30.4687
2.5475	30.3955
2.5462	30.334
2.545	30.2366
2.5437	30.1649
2.5425	30.1128
2.5413	30.0517
2.54	29.9683
2.5388	29.9404
2.5375	29.9139
2.5363	29.9027
2.535	29.9266
2.5338	29.948
2.5326	30.001
2.5313	30.1002
2.5301	30.1575
2.5289	30.177
2.5276	30.1601
2.5264	30.203
2.5252	30.2726
2.5239	30.3084
2.5227	30.3536
2.5215	30.352
2.5202	30.3553
2.519	30.3513
2.5178	30.3472
2.5166	30.3657
2.5154	30.3707
2.5141	30.3847
2.5129	30.4015
2.5117	30.3851
2.5105	30.364
2.5093	30.3704
2.5081	30.3873
2.5068	30.3863
2.5056	30.3494
2.5044	30.3775
2.5032	30.4081
2.502	30.401
2.5008	30.4088
2.4996	30.4602
2.4984	30.4889
2.4972	30.4924
2.496	30.5106
2.4948	30.5618
2.4936	30.5627
2.4924	30.5687
2.4912	30.5703
2.49	30.5772
2.4888	30.6115
2.4876	30.6113
2.4864	30.5867
2.4852	30.5348
2.484	30.5208
2.4828	30.5161
2.4816	30.4547
2.4805	30.4176
2.4793	30.4462
2.4781	30.4533
2.4769	30.4266
2.4757	30.3716
2.4745	30.3124
2.4734	30.302
2.4722	30.2958
2.471	30.2729
2.4698	30.239
2.4686	30.1829
2.4675	30.131
2.4663	30.1024
2.4651	30.0867
2.464	30.005
2.4628	29.9224
2.4616	29.8696
2.4604	29.8298
2.4593	29.7836
2.4581	29.7043
2.4569	29.6399
2.4558	29.5965
2.4546	29.5186
2.4535	29.4556
2.4523	29.4132
2.4511	29.3779
2.45	29.3403
2.4488	29.2944
2.4477	29.2444
2.4465	29.1947
2.4454	29.1643
2.4442	29.1802
2.4431	29.2044
2.4419	29.2041
2.4408	29.2015
2.4396	29.2382
2.4385	29.2692
2.4373	29.2813
2.4362	29.3398
2.435	29.4192
2.4339	29.5044
2.4327	29.5622
2.4316	29.5939
2.4305	29.6415
2.4293	29.6995
2.4282	29.7384
2.427	29.7779
2.4259	29.7696
2.4248	29.736
2.4236	29.7332
2.4225	29.6856
2.4214	29.6387
2.4202	29.5996
2.4191	29.5122
2.418	29.431
2.4169	29.3266
2.4157	29.2029
2.4146	29.0824
2.4135	28.9716
2.4124	28.8861
2.4112	28.8079
2.4101	28.7023
2.409	28.569
2.4079	28.4676
2.4068	28.3573
2.4056	28.2213
2.4045	28.1115
2.4034	27.9935
2.4023	27.8673
2.4012	27.7553
2.4001	27.5741
2.399	27.4008
2.3979	27.2523
2.3967	27.0922
2.3956	26.9447
2.3945	26.8445
2.3934	26.6844
2.3923	26.5068
2.3912	26.3754
2.3901	26.2702
2.389	26.1814
2.3879	26.1139
2.3868	26.0798
2.3857	26.036
2.3846	26.0412
2.3835	26.0696
2.3824	26.1085
2.3813	26.1776
2.3802	26.3282
2.3791	26.4845
2.3781	26.6093
2.377	26.772
2.3759	26.9444
2.3748	27.1351
2.3737	27.3759
2.3726	27.5703
2.3715	27.7285
2.3704	27.9409
2.3694	28.1212
2.3683	28.2481
2.3672	28.3663
2.3661	28.5105
2.365	28.6043
2.364	28.6168
2.3629	28.6038
2.3618	28.6235
2.3607	28.5775
2.3597	28.5181
2.3586	28.4482
2.3575	28.3194
2.3564	28.2185
2.3554	28.098
2.3543	27.9499
2.3532	27.823
2.3522	27.6655
2.3511	27.4484
2.35	27.2656
2.349	27.0896
2.3479	26.8947
2.3468	26.688
2.3458	26.4736
2.3447	26.3001
2.3436	26.1239
2.3426	25.9211
2.3415	25.7052
2.3405	25.5548
2.3394	25.4314
2.3384	25.2664
2.3373	25.1072
2.3363	24.9805
2.3352	24.8595
2.3342	24.7605
2.3331	24.6426
2.3321	24.5625
2.331	24.5261
2.33	24.4979
2.3289	24.5272
2.3279	24.6108
2.3268	24.6824
2.3258	24.8121
2.3247	24.9746
2.3237	25.1053
2.3226	25.2917
2.3216	25.5657
2.3206	25.8243
2.3195	26.089
2.3185	26.3671
2.3175	26.6562
2.3164	26.9617
2.3154	27.2833
2.3144	27.6336
2.3133	27.9947
2.3123	28.339
2.3113	28.6658
2.3102	29.0114
2.3092	29.3711
2.3082	29.709
2.3071	30.0526
2.3061	30.3752
2.3051	30.6482
2.3041	30.9447
2.303	31.2431
2.302	31.4577
2.301	31.6921
2.3	31.9642
2.299	32.18
2.2979	32.3564
2.2969	32.5558
2.2959	32.7393
2.2949	32.8956
2.2939	33.1237
2.2929	33.3321
2.2918	33.4862
2.2908	33.6646
2.2898	33.9085
2.2888	34.1202
2.2878	34.3201
2.2868	34.5382
2.2858	34.8003
2.2848	35.0516
2.2838	35.2268
2.2828	35.3732
2.2818	35.5153
2.2808	35.6105
2.2798	35.7537
2.2787	35.925
2.2777	35.9955
2.2767	36.0389
2.2757	36.1019
2.2747	36.1542
2.2738	36.1568
2.2728	36.1442
2.2718	36.1395
2.2708	36.1286
2.2698	36.0898
2.2688	36.0187
2.2678	35.8833
2.2668	35.7402
2.2658	35.6024
2.2648	35.4561
2.2638	35.242
2.2628	35.017
2.2618	34.7788
2.2609	34.5012
2.2599	34.2016
2.2589	33.9272
2.2579	33.589
2.2569	33.2613
2.2559	32.9209
2.255	32.5773
2.254	32.251
2.253	31.9145
2.252	31.6315
2.251	31.3594
2.2501	31.2104
2.2491	31.1851
2.2481	31.1979
2.2471	31.2327
2.2462	31.3653
2.2452	31.6443
2.2442	32.0554
2.2433	32.5281
2.2423	33.0495
2.2413	33.5999
2.2403	34.2218
2.2394	34.8801
2.2384	35.4655
2.2374	36.0803
2.2365	36.7043
2.2355	37.293
2.2345	37.8174
2.2336	38.2889
2.2326	38.7386
2.2317	39.1613
2.2307	39.5733
2.2297	39.9414
2.2288	40.2165
2.2278	40.4602
2.2269	40.711
2.2259	40.9047
2.225	41.1311
2.224	41.3324
2.2231	41.5188
2.2221	41.645
2.2211	41.761
2.2202	41.8776
2.2192	41.9654
2.2183	42.0651
2.2173	42.1371
2.2164	42.193
2.2155	42.2295
2.2145	42.2837
2.2136	42.2707
2.2126	42.2773
2.2117	42.3187
2.2107	42.3228
2.2098	42.3275
2.2088	42.3375
2.2079	42.3872
2.207	42.3865
2.206	42.4237
2.2051	42.4473
2.2041	42.3955
2.2032	42.3869
2.2023	42.378
2.2013	42.3803
2.2004	42.3938
2.1995	42.3995
2.1985	42.422
2.1976	42.4578
2.1967	42.5319
2.1957	42.5297
2.1948	42.5136
2.1939	42.5302
2.193	42.5551
2.192	42.6429
2.1911	42.6214
2.1902	42.6332
2.1893	42.6501
2.1883	42.616
2.1874	42.6714
2.1865	42.6903
2.1856	42.6458
2.1846	42.6508
2.1837	42.7147
2.1828	42.7173
2.1819	42.6932
2.181	42.6766
2.18	42.7093
2.1791	42.7543
2.1782	42.7363
2.1773	42.7095
2.1764	42.7334
2.1755	42.7955
2.1746	42.7803
2.1736	42.695
2.1727	42.7261
2.1718	42.7268
2.1709	42.7036
2.17	42.6657
2.1691	42.6628
2.1682	42.6678
2.1673	42.6747
2.1664	42.6799
2.1655	42.6448
2.1646	42.6027
2.1637	42.5994
2.1628	42.6103
2.1619	42.5826
2.161	42.5639
2.1601	42.5459
2.1592	42.4488
2.1583	42.4251
2.1574	42.4705
2.1565	42.4852
2.1556	42.4312
2.1547	42.4509
2.1538	42.4402
2.1529	42.4215
2.152	42.4151
2.1511	42.3903
2.1502	42.3912
2.1493	42.3834
2.1484	42.3417
2.1475	42.3796
2.1466	42.373
2.1458	42.3247
2.1449	42.2652
2.144	42.247
2.1431	42.2972
2.1422	42.2984
2.1413	42.2565
2.1404	42.2437
2.1396	42.2181
2.1387	42.1539
2.1378	42.1257
2.1369	42.1167
2.136	42.0774
2.1352	42.0599
2.1343	42.0405
2.1334	41.9706
2.1325	41.9244
2.1316	41.9074
2.1308	41.9197
2.1299	41.851
2.129	41.7753
2.1281	41.8437
2.1273	41.7897
2.1264	41.7246
2.1255	41.7473
2.1247	41.7146
2.1238	41.6777
2.1229	41.6734
2.122	41.7009
2.1212	41.7445
2.1203	41.7241
2.1194	41.61
2.1186	41.5228
2.1177	41.5034
2.1168	41.457
2.116	41.5058
2.1151	41.52
2.1143	41.493
2.1134	41.4897
2.1125	41.4655
2.1117	41.4518
2.1108	41.4731
2.11	41.4053
2.1091	41.3334
2.1082	41.2813
2.1074	41.2997
2.1065	41.3315
2.1057	41.2599
2.1048	41.2135
2.104	41.2552
2.1031	41.2329
2.1023	41.2599
2.1014	41.2742
2.1005	41.2149
2.0997	41.2206
2.0988	41.2306
2.098	41.1865
2.0971	41.2765
2.0963	41.3414
2.0955	41.304
2.0946	41.2377
2.0938	41.3291
2.0929	41.3675
2.0921	41.3092
2.0912	41.2865
2.0904	41.3769
2.0895	41.4603
2.0887	41.452
2.0879	41.4158
2.087	41.4044
2.0862	41.5093
2.0853	41.5927
2.0845	41.6107
2.0837	41.6317
2.0828	41.6675
2.082	41.7466
2.0812	41.7717
2.0803	41.6945
2.0795	41.784
2.076	42.0556
2.072	42.371
2.068	42.4691
2.064	42.366
2.06	42.4165
2.056	42.3314
2.052	41.9904
2.048	42.0738
2.044	41.9478
2.04	42.0929
2.036	42.0261
2.032	41.8814
2.028	41.6307
2.024	41.3084
2.02	41.1499
2.016	41.0528
2.012	40.9866
2.008	40.7169
2.004	40.6781
2	40.391
1.996	39.9495
1.992	39.3798
1.988	39.2669
1.984	38.9786
1.98	38.674
1.976	38.5305
1.972	38.3904
1.968	38.2162
1.964	38.181
1.96	38.1407
1.956	37.826
1.952	37.642
1.948	37.4392
1.944	37.189
1.94	37.1135
1.936	36.9744
1.932	37.069
1.928	37.0733
1.924	37.1036
1.92	36.6246
1.916	36.593
1.912	36.5475
1.908	36.5294
1.904	36.5001
1.9	36.7999
1.896	37.3141
1.892	37.7846
1.888	38.1504
1.884	38.6171
1.88	38.8406
1.876	38.8881
1.872	39.0617
1.868	38.9333
1.864	39.0594
1.86	39.0106
1.856	39.0431
1.852	39.1261
1.848	38.9794
1.844	38.777
1.84	38.7111
1.836	38.6535
1.832	38.5583
1.828	38.5045
1.824	38.2466
1.82	38.1682
1.816	37.884
1.812	37.729
1.808	37.6548
1.804	37.6265
1.8	37.5346
1.796	37.4242
1.792	37.3625
1.788	37.1747
1.784	36.7036
1.78	36.395
1.776	36.2854
1.772	35.989
1.768	35.8794
1.764	35.7563
1.76	35.5202
1.756	35.3916
1.752	35.256
1.748	35.1015
1.744	35.1158
1.74	35.1691
1.736	35.055
1.732	34.8015
1.728	34.6702
1.724	34.4916
1.72	34.3395
1.716	34.1783
1.712	33.9593
1.708	33.7861
1.704	33.5726
1.7	33.5799
1.696	33.2716
1.692	33.2114
1.688	32.9652
1.684	32.8343
1.68	32.7357
1.676	32.624
1.672	32.3873
1.668	32.2261
1.664	32.0153
1.66	31.8442
1.656	31.6637
1.652	31.5693
1.648	31.5241
1.644	31.4334
1.64	31.2932
1.636	30.8785
1.632	30.7022
1.628	30.4047
1.624	30.1585
1.62	29.943
1.616	29.8864
1.612	29.6527
1.608	29.6148
1.604	29.4617
1.6	29.3599
1.596	29.1931
1.592	28.9982
1.588	28.8354
1.584	28.5527
1.58	28.4203
1.576	28.2593
1.572	28.2606
1.568	27.9968
1.564	27.6198
1.56	27.4695
1.556	27.3879
1.552	27.1841
1.548	26.9009
1.544	26.8077
1.54	26.863
1.536	26.6176
1.532	26.5472
1.528	26.4019
1.524	26.1346
1.52	25.9415
1.516	25.7245
1.512	25.6955
1.508	25.3771
1.504	25.1063
1.5	25.0063
1.496	24.5377
1.492	24.5065
1.488	24.3613
1.484	24.3066
1.48	24.2376
1.476	24.0441
1.472	23.8939
1.468	23.6051
1.464	23.4063
1.46	23.3414
1.456	23.1244
1.452	22.8138
1.448	22.5702
1.444	22.4684
1.44	22.4121
1.436	22.3084
1.432	22.1212
1.428	21.9596
1.424	21.7368
1.42	21.5215
1.416	21.3302
1.412	21.2022
1.408	20.8478
1.404	20.7892
1.4	20.5835
1.396	20.1564
1.392	19.8321
1.388	19.6207
1.384	19.2713
1.38	18.9918
1.376	18.5727
1.372	18.379
1.368	18.6475
1.364	18.9617
1.36	19.0979
1.356	19.1231
1.352	19.0893
1.348	19.0126
1.344	18.879
1.34	18.8168
1.336	18.709
1.332	18.6271
1.328	18.2109
1.324	18.0752
1.32	18.0033
1.316	17.7574
1.312	17.5834
1.308	17.3915
1.304	17.2495
1.3	17.1815
1.296	16.9527
1.292	16.948
1.288	16.8026
1.284	16.558
1.28	16.2999
1.276	16.2442
1.272	16.013
1.268	15.9757
1.264	15.936
1.26	15.7353
1.256	15.6821
1.252	15.4905
1.248	15.503
1.244	15.4128
1.24	15.3281
1.236	15.3902
1.232	15.2781
1.228	15.0174
1.224	14.924
1.22	14.8875
1.216	14.794
1.212	14.794
1.208	14.694
1.204	14.6216
1.2	14.5493
1.196	14.3275
1.192	14.2387
1.188	14.2163
1.184	14.1776
1.18	14.1224
1.176	13.9541
1.172	13.8459
1.168	13.7972
1.164	13.8119
1.16	13.7344
1.156	13.5624
1.152	13.5691
1.148	13.575
1.144	13.4868
1.14	13.3168
1.136	13.39
1.132	13.4365
1.128	13.3128
1.124	13.2946
1.12	13.3412
1.116	13.1566
1.112	13.2132
1.108	13.2081
1.104	13.0814
1.1	13.0727
1.096	13.1532
1.092	13.1525
1.088	13.1497
1.084	13.2134
1.08	13.2452
1.076	13.1316
1.072	13.0442
1.068	13.0132
1.064	13.1882
1.06	13.1106
1.056	13.1832
1.052	13.1933
1.048	13.2571
1.044	13.2538
1.04	13.1725
1.036	13.0731
1.032	13.1151
1.028	13.1576
1.024	13.1662
1.02	13.2666
1.016	13.2818
1.012	13.3055
1.008	13.2894
1.004	13.2353
1	13.1001
0.996	13.1362
0.992	13.3
0.988	13.0715
0.984	13.1051
0.98	13.2073
0.976	13.1414
0.972	13.1834
0.968	13.1646
0.964	13.0725
0.96	13.0675
0.956	13.1016
0.952	13.0377
0.948	12.9603
0.944	12.9603
0.94	12.852
0.936	12.857
0.932	12.8669
0.928	12.8818
0.924	12.8427
0.92	12.7303
0.916	12.6767
0.912	12.7305
0.908	12.7246
0.904	12.6854
0.9	12.6169
0.896	12.7383
0.892	12.7433
0.888	12.7537
0.884	12.7967
0.88	12.7774
0.876	12.8719
0.872	12.8966
0.868	12.8619
0.864	12.9018
0.86	12.9973
0.856	12.9737
0.852	13.0045
0.848	12.9992
0.844	13.1345
0.84	13.0783
0.836	13.0874
0.832	13.1506
0.828	13.2827
0.824	13.1786
0.82	13.1954
0.816	13.2519
0.812	13.2956
0.808	13.2649
0.804	13.241
0.8	13.2704
0.799	12.9222
0.798	12.922
0.797	12.8835
0.796	12.8889
0.795	12.8726
0.794	12.9308
0.793	12.9347
0.792	12.957
0.791	12.8708
0.79	12.847
0.789	12.8738
0.788	12.8306
0.787	12.8793
0.786	12.8117
0.785	12.8176
0.784	12.9168
0.783	12.7826
0.782	12.8408
0.781	12.9894
0.78	12.9507
0.779	12.7471
0.778	12.7459
0.777	12.6711
0.776	12.7233
0.775	12.7233
0.774	12.7417
0.773	12.6634
0.772	12.7119
0.771	12.8459
0.77	12.7984
0.769	12.8094
0.768	12.7397
0.767	12.6994
0.766	12.7357
0.765	12.6406
0.764	12.6243
0.763	12.6331
0.762	12.6973
0.761	12.6243
0.76	12.6569
0.759	12.6823
0.758	12.6878
0.757	12.6858
0.756	12.6365
0.755	12.5829
0.754	12.4765
0.753	12.6249
0.752	12.6266
0.751	12.649
0.75	12.6009
0.749	12.868
0.748	12.645
0.747	12.5658
0.746	12.5953
0.745	12.7864
0.744	12.6806
0.743	12.6862
0.742	12.675
0.741	12.6974
0.74	12.7046
0.739	12.5861
0.738	12.5953
0.737	12.5125
0.736	12.507
0.735	12.7549
0.734	12.7233
0.733	12.5266
0.732	12.4038
0.731	12.3524
0.73	12.5992
0.729	12.5457
0.728	12.5992
0.727	12.5793
0.726	12.5962
0.725	12.6019
0.724	12.5279
0.723	12.6188
0.722	12.5535
0.721	12.6811
0.72	12.5311
0.719	12.5552
0.718	12.6003
0.717	12.6343
0.716	12.5405
0.715	12.6272
0.714	12.5817
0.713	12.6857
0.712	12.6586
0.711	12.7444
0.71	12.7859
0.709	12.7318
0.708	12.68
0.707	12.7419
0.706	12.6303
0.705	12.7828
0.704	12.7644
0.703	12.7365
0.702	12.6776
0.701	12.7353
0.7	12.6891
0.699	12.7249
0.698	12.5064
0.697	12.5749
0.696	12.6169
0.695	12.4568
0.694	12.4413
0.693	12.5058
0.692	12.5648
0.691	12.5348
0.69	12.5423
0.689	12.5188
0.688	12.4698
0.687	12.4662
0.686	12.5557
0.685	12.5931
0.684	12.5115
0.683	12.536
0.682	12.4967
0.681	12.6241
0.68	12.6299
0.679	12.6241
0.678	12.6719
0.677	12.7123
0.676	12.6894
0.675	12.5995
0.674	12.5648
0.673	12.5345
0.672	12.6067
0.671	12.6299
0.67	12.7233
0.669	12.6946
0.668	12.6711
0.667	12.7014
0.666	12.7081
0.665	12.7842
0.664	12.7618
0.663	12.7742
0.662	12.9361
0.661	12.8699
0.66	12.936
0.659	13.069
0.658	12.8813
0.657	13.0011
0.656	13.0188
0.655	12.8265
0.654	12.7605
0.653	12.76
0.652	12.7417
0.651	12.7003
0.65	12.7677
0.649	12.8629
0.648	12.8983
0.647	12.8802
0.646	13.0133
0.645	13.1038
0.644	13.0252
0.643	13.0143
0.642	13.061
0.641	12.9421
0.64	12.9224
0.639	12.987
0.638	12.9404
0.637	13.0309
0.636	13.0916
0.635	13.061
0.634	13.0916
0.633	13.0676
0.632	13.0713
0.631	13.0245
0.63	13.1693
0.629	13.0974
0.628	13.0378
0.627	13.0803
0.626	13.147
0.625	13.0614
0.624	13.0188
0.623	13.0836
0.622	13.0427
0.621	13.0108
0.62	13.0652
0.619	13.1216
0.618	13.1106
0.617	13.2362
0.616	13.3201
0.615	13.2004
0.614	13.2012
0.613	13.1648
0.612	13.0374
0.611	13.072
0.61	13.037
0.609	13.0066
0.608	13.0184
0.607	13.0245
0.606	12.9885
0.605	12.9601
0.604	13.0431
0.603	12.9878
0.602	12.964
0.601	12.892
0.6	13.0074
0.599	12.9713
0.598	12.9961
0.597	13.2211
0.596	13.2147
0.595	13.1085
0.594	13.1519
0.593	13.0773
0.592	13.1591
0.591	13.1661
0.59	13.1401
0.589	13.2092
0.588	13.202
0.587	13.1203
0.586	13.1077
0.585	13.0458
0.584	13.1527
0.583	13.2531
0.582	13.1973
0.581	13.0963
0.58	13.0585
0.579	13.0145
0.578	13.0886
0.577	13.1445
0.576	13.1136
0.575	13.1694
0.574	13.2242
0.573	13.234
0.572	13.1463
0.571	13.2834
0.57	13.2593
0.569	13.3314
0.568	13.306
0.567	13.2098
0.566	13.3024
0.565	13.2414
0.564	13.2897
0.563	13.2351
0.562	13.1309
0.561	13.1614
0.56	13.2055
0.559	13.0889
0.558	13.334
0.557	13.2113
0.556	13.2159
0.555	13.3371
0.554	13.3319
0.553	13.357
0.552	13.2722
0.551	13.2854
0.55	13.1999
0.549	13.2632
0.548	13.0638
0.547	13.0392
0.546	13.0453
0.545	12.9842
0.544	13.0208
0.543	12.9592
0.542	13.0454
0.541	12.9653
0.54	12.9347
0.539	12.9222
0.538	12.9341
0.537	13.033
0.536	12.9958
0.535	12.9398
0.534	12.9703
0.533	12.9208
0.532	12.8462
0.531	12.8582
0.53	12.791
0.529	12.9467
0.528	12.8427
0.527	12.763
0.526	12.7749
0.525	12.6388
0.524	12.6885
0.523	12.6944
0.522	12.7728
0.521	12.6913
0.52	12.721
0.519	12.7597
0.518	12.6866
0.517	12.6069
0.516	12.5313
0.515	12.6269
0.514	12.5662
0.513	12.5429
0.512	12.5139
0.511	12.5231
0.51	12.6035
0.509	12.4242
0.508	12.3644
0.507	12.5429
0.506	12.5464
0.505	12.4527
0.504	12.4413
0.503	12.3668
0.502	12.2699
0.501	12.3628
0.5	12.3256
0.499	12.1674
0.498	12.1893
0.497	12.2738
0.496	12.1038
0.495	12.1046
0.494	12.1647
0.493	11.9731
0.492	12.163
0.491	12.0372
0.49	12.1327
0.489	12.1164
0.488	12.0991
0.487	11.9826
0.486	12.0256
0.485	11.9083
0.484	12.1065
0.483	11.9353
0.482	11.8238
0.481	11.7656
0.48	11.8342
0.479	11.812
0.478	11.8016
0.477	11.8068
0.476	11.7672
0.475	11.8544
0.474	11.7441
0.473	11.6475
0.472	11.6211
0.471	11.6475
0.47	11.587
0.469	11.5934
0.468	11.4557
0.467	11.5983
0.466	11.541
0.465	11.5504
0.464	11.5794
0.463	11.4233
0.462	11.5163
0.461	11.4783
0.46	11.3907
0.459	11.5382
0.458	11.5566
0.457	11.4659
0.456	11.5382
0.455	11.3722
0.454	11.381
0.453	11.2318
0.452	11.2489
0.451	11.1613
0.45	11.1026
0.449	11.1005
0.448	11.1618
0.447	11.0897
0.446	11.1196
0.445	11.1278
0.444	11.1549
0.443	11.1167
0.442	11.1898
0.441	11.2526
0.44	11.0772
0.439	10.9685
0.438	10.9226
0.437	10.8453
0.436	10.9827
0.435	10.8716
0.434	11.0092
0.433	10.7413
0.432	10.7869
0.431	10.73
0.43	10.8461
0.429	10.863
0.428	10.8003
0.427	10.6914
0.426	10.6154
0.425	10.6893
0.424	10.6573
0.423	10.5961
0.422	10.4656
0.421	10.3945
0.42	10.3627
0.419	10.419
0.418	10.3554
0.417	10.3301
0.416	10.3087
0.415	10.4344
0.414	10.2079
0.413	10.1378
0.412	10.3628
0.411	10.3727
0.41	10.344
0.409	10.2942
0.408	10.304
0.407	10.3254
0.406	10.2775
0.405	10.0784
0.404	10.047
0.403	10.0766
0.402	9.9732
0.401	10.108
0.4	9.8553
