Name:  Orgueil.3
Type:  Stony Meteorites
Class:  Carbonaceous Chondrite
Subclass:  CI
Particle Size:  0-75 micrometers
Sample No.:  Orgueil.3
Owner:  JHU
Wavelength range:  IR
Origin:  Meteorite seen to fall in France in 1864..  Museum National d'Histoire 
Naturelle sample No. 2830 obtained via Tom Jones.
Description:  None.





Measurement:  Bidirectional reflectance
First Column:  X
Second Column:  Y
X Units:  Wavelength (micrometers)
Y Units:  Reflectance (percent)
First X Value:  25.044
Last X Value:  2.0795
Number of X Values:  2286
Additional information:  None

25.044	0.60160
24.924	0.57760
24.805	0.56180
24.686	0.55420
24.569	0.55540
24.454	0.56450
24.339	0.57980
24.225	0.59990
24.112	0.62180
24.001	0.64380
23.890	0.66360
23.781	0.67940
23.672	0.68990
23.564	0.69430
23.458	0.69240
23.352	0.68530
23.247	0.67530
23.144	0.66500
23.041	0.65770
22.939	0.65530
22.838	0.65840
22.738	0.66630
22.638	0.67630
22.540	0.68600
22.442	0.69310
22.345	0.69630
22.250	0.69530
22.154	0.69120
22.060	0.68510
21.967	0.67870
21.874	0.67310
21.782	0.66970
21.691	0.66890
21.601	0.67070
21.511	0.67430
21.422	0.67850
21.334	0.68160
21.247	0.68190
21.160	0.67870
21.074	0.67190
20.988	0.66160
20.904	0.64990
20.820	0.63740
20.737	0.62550
20.654	0.61500
20.572	0.60600
20.491	0.59770
20.410	0.58960
20.330	0.58110
20.251	0.57130
20.172	0.56030
20.094	0.54810
20.016	0.53440
19.939	0.51950
19.863	0.50410
19.787	0.48830
19.712	0.47220
19.637	0.45530
19.563	0.43850
19.489	0.42140
19.416	0.40480
19.344	0.38920
19.272	0.37570
19.201	0.36500
19.130	0.35720
19.059	0.35230
18.990	0.34960
18.920	0.34810
18.851	0.34740
18.783	0.34590
18.715	0.34400
18.648	0.34130
18.581	0.33810
18.515	0.33540
18.449	0.33370
18.384	0.33350
18.319	0.33520
18.254	0.33840
18.190	0.34280
18.126	0.34740
18.063	0.35160
18.001	0.35470
17.938	0.35640
17.876	0.35740
17.815	0.35770
17.754	0.35790
17.693	0.35840
17.633	0.35840
17.573	0.35820
17.514	0.35670
17.455	0.35380
17.396	0.34940
17.338	0.34400
17.280	0.33790
17.223	0.33230
17.166	0.32710
17.109	0.32350
17.053	0.32130
16.997	0.32030
16.942	0.32080
16.886	0.32150
16.832	0.32280
16.777	0.32420
16.723	0.32520
16.669	0.32670
16.616	0.32840
16.563	0.33030
16.510	0.33250
16.458	0.33470
16.406	0.33590
16.354	0.33640
16.302	0.33520
16.251	0.33280
16.200	0.32910
16.150	0.32500
16.100	0.32080
16.050	0.31710
16.000	0.31470
15.951	0.31320
15.902	0.31270
15.854	0.31270
15.805	0.31350
15.757	0.31400
15.710	0.31420
15.662	0.31420
15.615	0.31450
15.568	0.31450
15.521	0.31470
15.475	0.31520
15.429	0.31570
15.383	0.31590
15.338	0.31620
15.292	0.31590
15.248	0.31520
15.203	0.31420
15.158	0.31320
15.114	0.31180
15.070	0.31030
15.027	0.30830
14.983	0.30620
14.940	0.30350
14.897	0.30050
14.854	0.29740
14.812	0.29470
14.770	0.29250
14.728	0.29100
14.686	0.29050
14.645	0.29080
14.603	0.29170
14.562	0.29270
14.521	0.29350
14.481	0.29440
14.441	0.29520
14.400	0.29610
14.361	0.29760
14.321	0.30000
14.281	0.30300
14.242	0.30710
14.203	0.31200
14.164	0.31760
14.126	0.32420
14.087	0.33130
14.049	0.33860
14.011	0.34590
13.973	0.35300
13.936	0.35940
13.899	0.36520
13.861	0.36990
13.824	0.37400
13.788	0.37790
13.751	0.38160
13.715	0.38530
13.679	0.38940
13.643	0.39400
13.607	0.39920
13.571	0.40480
13.536	0.41090
13.500	0.41750
13.465	0.42410
13.430	0.43090
13.396	0.43770
13.361	0.44460
13.327	0.45090
13.293	0.45680
13.259	0.46170
13.225	0.46560
13.191	0.46850
13.158	0.47090
13.124	0.47310
13.091	0.47610
13.058	0.47970
13.026	0.48510
12.993	0.49150
12.960	0.49850
12.928	0.50560
12.896	0.51220
12.864	0.51780
12.832	0.52200
12.800	0.52470
12.769	0.52690
12.737	0.52880
12.706	0.53120
12.675	0.53420
12.644	0.53810
12.614	0.54270
12.583	0.54760
12.552	0.55250
12.522	0.55690
12.492	0.56080
12.462	0.56420
12.432	0.56740
12.402	0.57100
12.373	0.57540
12.343	0.58080
12.314	0.58740
12.285	0.59520
12.256	0.60380
12.227	0.61280
12.198	0.62130
12.169	0.62910
12.141	0.63550
12.113	0.64060
12.084	0.64500
12.056	0.64890
12.028	0.65280
12.000	0.65750
11.973	0.66210
11.945	0.66700
11.918	0.67140
11.890	0.67500
11.863	0.67800
11.836	0.68020
11.809	0.68210
11.782	0.68430
11.755	0.68650
11.729	0.68870
11.702	0.69120
11.676	0.69310
11.650	0.69430
11.624	0.69480
11.598	0.69460
11.572	0.69380
11.546	0.69290
11.520	0.69190
11.495	0.69090
11.469	0.68950
11.444	0.68770
11.419	0.68550
11.394	0.68310
11.369	0.68070
11.344	0.67870
11.319	0.67750
11.294	0.67700
11.270	0.67720
11.245	0.67720
11.221	0.67680
11.197	0.67550
11.173	0.67330
11.149	0.67020
11.125	0.66650
11.101	0.66280
11.077	0.65940
11.054	0.65580
11.030	0.65190
11.007	0.64700
10.983	0.64090
10.960	0.63380
10.937	0.62550
10.914	0.61650
10.891	0.60670
10.868	0.59670
10.846	0.58670
10.823	0.57620
10.800	0.56540
10.778	0.55490
10.755	0.54470
10.733	0.53490
10.711	0.52590
10.689	0.51810
10.667	0.51120
10.645	0.50540
10.623	0.50000
10.602	0.49510
10.580	0.49020
10.558	0.48540
10.537	0.48050
10.516	0.47530
10.494	0.47020
10.473	0.46530
10.452	0.46040
10.431	0.45580
10.410	0.45140
10.389	0.44750
10.368	0.44410
10.348	0.44090
10.327	0.43820
10.306	0.43630
10.286	0.43460
10.266	0.43290
10.245	0.43160
10.225	0.43040
10.205	0.42940
10.185	0.42820
10.165	0.42750
10.145	0.42680
10.125	0.42650
10.106	0.42630
10.086	0.42630
10.066	0.42650
10.047	0.42680
10.027	0.42720
10.008	0.42770
9.9887	0.42820
9.9695	0.42920
9.9504	0.43020
9.9313	0.43160
9.9123	0.43310
9.8934	0.43460
9.8746	0.43630
9.8558	0.43800
9.8371	0.43920
9.8185	0.44040
9.7999	0.44160
9.7814	0.44240
9.7630	0.44290
9.7447	0.44290
9.7264	0.44210
9.7082	0.44090
9.6900	0.43900
9.6719	0.43600
9.6539	0.43240
9.6360	0.42800
9.6181	0.42310
9.6003	0.41800
9.5825	0.41240
9.5649	0.40670
9.5472	0.40110
9.5297	0.39580
9.5122	0.39040
9.4948	0.38550
9.4774	0.38060
9.4601	0.37600
9.4429	0.37210
9.4257	0.36840
9.4086	0.36550
9.3916	0.36350
9.3746	0.36210
9.3577	0.36110
9.3408	0.36010
9.3240	0.35940
9.3073	0.35820
9.2906	0.35640
9.2740	0.35450
9.2574	0.35200
9.2409	0.34910
9.2245	0.34620
9.2081	0.34350
9.1918	0.34110
9.1755	0.33910
9.1593	0.33760
9.1431	0.33670
9.1270	0.33570
9.1110	0.33500
9.0950	0.33400
9.0791	0.33250
9.0632	0.33130
9.0474	0.32980
9.0316	0.32860
9.0159	0.32760
9.0003	0.32710
8.9847	0.32670
8.9691	0.32670
8.9536	0.32670
8.9382	0.32670
8.9228	0.32640
8.9075	0.32570
8.8922	0.32470
8.8770	0.32320
8.8618	0.32130
8.8467	0.31930
8.8316	0.31740
8.8166	0.31590
8.8016	0.31520
8.7867	0.31520
8.7718	0.31540
8.7570	0.31620
8.7422	0.31660
8.7275	0.31640
8.7129	0.31570
8.6982	0.31450
8.6837	0.31270
8.6692	0.31130
8.6547	0.31010
8.6403	0.30980
8.6259	0.31050
8.6116	0.31230
8.5973	0.31520
8.5830	0.31840
8.5688	0.32230
8.5547	0.32620
8.5406	0.32980
8.5266	0.33350
8.5126	0.33670
8.4986	0.33960
8.4847	0.34200
8.4708	0.34450
8.4570	0.34640
8.4432	0.34860
8.4295	0.35060
8.4158	0.35280
8.4022	0.35500
8.3886	0.35770
8.3750	0.36060
8.3615	0.36430
8.3481	0.36870
8.3347	0.37380
8.3213	0.37960
8.3079	0.38600
8.2946	0.39310
8.2814	0.40010
8.2682	0.40770
8.2550	0.41530
8.2419	0.42310
8.2288	0.43070
8.2158	0.43820
8.2028	0.44600
8.1898	0.45390
8.1769	0.46170
8.1640	0.46970
8.1512	0.47830
8.1384	0.48710
8.1256	0.49630
8.1129	0.50610
8.1002	0.51640
8.0876	0.52760
8.0750	0.53910
8.0624	0.55130
8.0499	0.56400
8.0374	0.57740
8.0250	0.59160
8.0126	0.60620
8.0002	0.62130
7.9879	0.63720
7.9756	0.65330
7.9634	0.66940
7.9512	0.68580
7.9390	0.70190
7.9268	0.71800
7.9147	0.73360
7.9027	0.74930
7.8906	0.76440
7.8786	0.77950
7.8667	0.79420
7.8548	0.80860
7.8429	0.82250
7.8310	0.83620
7.8192	0.84940
7.8075	0.86180
7.7957	0.87350
7.7840	0.88480
7.7723	0.89530
7.7607	0.90500
7.7491	0.91430
7.7375	0.92330
7.7260	0.93190
7.7145	0.93990
7.7031	0.94730
7.6916	0.95430
7.6802	0.96040
7.6689	0.96610
7.6575	0.97090
7.6462	0.97530
7.6350	0.97950
7.6238	0.98320
7.6126	0.98710
7.6014	0.99070
7.5903	0.99490
7.5792	0.99880
7.5681	1.0032
7.5571	1.0078
7.5461	1.0127
7.5351	1.0176
7.5242	1.0229
7.5133	1.0281
7.5024	1.0332
7.4916	1.0378
7.4807	1.0425
7.4700	1.0464
7.4592	1.0500
7.4485	1.0535
7.4378	1.0564
7.4272	1.0596
7.4165	1.0625
7.4059	1.0654
7.3954	1.0681
7.3848	1.0710
7.3743	1.0735
7.3639	1.0759
7.3534	1.0779
7.3430	1.0796
7.3326	1.0808
7.3223	1.0818
7.3119	1.0823
7.3016	1.0823
7.2914	1.0820
7.2811	1.0811
7.2709	1.0801
7.2607	1.0789
7.2506	1.0781
7.2404	1.0779
7.2303	1.0781
7.2203	1.0791
7.2102	1.0803
7.2002	1.0813
7.1902	1.0820
7.1803	1.0823
7.1703	1.0813
7.1604	1.0796
7.1506	1.0771
7.1407	1.0742
7.1309	1.0710
7.1211	1.0679
7.1113	1.0647
7.1016	1.0618
7.0919	1.0591
7.0822	1.0564
7.0725	1.0537
7.0629	1.0518
7.0533	1.0498
7.0437	1.0483
7.0341	1.0471
7.0246	1.0461
7.0151	1.0452
7.0056	1.0442
6.9962	1.0432
6.9867	1.0425
6.9773	1.0415
6.9679	1.0408
6.9586	1.0400
6.9493	1.0395
6.9400	1.0395
6.9307	1.0398
6.9214	1.0408
6.9122	1.0422
6.9030	1.0442
6.8938	1.0469
6.8847	1.0500
6.8755	1.0537
6.8664	1.0576
6.8573	1.0615
6.8483	1.0657
6.8393	1.0696
6.8302	1.0737
6.8213	1.0781
6.8123	1.0825
6.8034	1.0869
6.7944	1.0915
6.7855	1.0962
6.7767	1.1013
6.7678	1.1062
6.7590	1.1116
6.7502	1.1174
6.7414	1.1235
6.7327	1.1304
6.7239	1.1379
6.7152	1.1457
6.7065	1.1538
6.6979	1.1619
6.6892	1.1694
6.6806	1.1763
6.6720	1.1824
6.6634	1.1875
6.6549	1.1921
6.6464	1.1958
6.6378	1.1992
6.6294	1.2019
6.6209	1.2043
6.6124	1.2061
6.6040	1.2075
6.5956	1.2085
6.5872	1.2090
6.5789	1.2090
6.5705	1.2087
6.5622	1.2082
6.5539	1.2073
6.5456	1.2058
6.5374	1.2039
6.5292	1.2014
6.5209	1.1987
6.5128	1.1956
6.5046	1.1921
6.4964	1.1885
6.4883	1.1848
6.4802	1.1809
6.4721	1.1768
6.4640	1.1719
6.4560	1.1665
6.4480	1.1599
6.4399	1.1528
6.4320	1.1450
6.4240	1.1367
6.4160	1.1284
6.4081	1.1201
6.4002	1.1116
6.3923	1.1033
6.3844	1.0947
6.3766	1.0859
6.3687	1.0769
6.3609	1.0676
6.3531	1.0581
6.3454	1.0486
6.3376	1.0391
6.3299	1.0293
6.3221	1.0195
6.3144	1.0093
6.3068	0.99880
6.2991	0.98780
6.2914	0.97610
6.2838	0.96440
6.2762	0.95260
6.2686	0.94090
6.2611	0.92940
6.2535	0.91870
6.2460	0.90800
6.2385	0.89750
6.2310	0.88620
6.2235	0.87430
6.2160	0.86060
6.2086	0.84520
6.2011	0.82760
6.1937	0.80830
6.1863	0.78780
6.1790	0.76660
6.1716	0.74610
6.1643	0.72680
6.1570	0.70920
6.1496	0.69430
6.1424	0.68240
6.1351	0.67310
6.1278	0.66670
6.1206	0.66280
6.1134	0.66110
6.1062	0.66110
6.0990	0.66260
6.0918	0.66480
6.0847	0.66750
6.0776	0.66990
6.0704	0.67240
6.0633	0.67430
6.0563	0.67630
6.0492	0.67800
6.0421	0.68020
6.0351	0.68290
6.0281	0.68630
6.0211	0.69040
6.0141	0.69560
6.0071	0.70170
6.0002	0.70870
5.9932	0.71680
5.9863	0.72630
5.9794	0.73730
5.9725	0.75020
5.9657	0.76510
5.9588	0.78220
5.9520	0.80150
5.9451	0.82300
5.9383	0.84670
5.9315	0.87260
5.9247	0.89990
5.9180	0.92870
5.9112	0.95850
5.9045	0.98830
5.8978	1.0183
5.8911	1.0478
5.8844	1.0764
5.8777	1.1040
5.8711	1.1301
5.8644	1.1548
5.8578	1.1775
5.8512	1.1990
5.8446	1.2187
5.8380	1.2378
5.8314	1.2559
5.8249	1.2737
5.8184	1.2910
5.8118	1.3081
5.8053	1.3245
5.7988	1.3403
5.7923	1.3555
5.7859	1.3701
5.7794	1.3840
5.7730	1.3972
5.7666	1.4099
5.7602	1.4221
5.7538	1.4341
5.7474	1.4456
5.7410	1.4565
5.7347	1.4673
5.7283	1.4773
5.7220	1.4871
5.7157	1.4961
5.7094	1.5046
5.7031	1.5127
5.6969	1.5205
5.6906	1.5273
5.6844	1.5339
5.6782	1.5395
5.6719	1.5447
5.6657	1.5491
5.6596	1.5530
5.6534	1.5564
5.6472	1.5601
5.6411	1.5637
5.6349	1.5679
5.6288	1.5725
5.6227	1.5774
5.6166	1.5823
5.6106	1.5874
5.6045	1.5925
5.5984	1.5977
5.5924	1.6023
5.5864	1.6072
5.5804	1.6116
5.5744	1.6162
5.5684	1.6206
5.5624	1.6248
5.5564	1.6291
5.5505	1.6331
5.5445	1.6370
5.5386	1.6409
5.5327	1.6445
5.5268	1.6479
5.5209	1.6516
5.5151	1.6553
5.5092	1.6589
5.5033	1.6628
5.4975	1.6670
5.4917	1.6711
5.4859	1.6755
5.4801	1.6802
5.4743	1.6846
5.4685	1.6892
5.4628	1.6934
5.4570	1.6975
5.4513	1.7009
5.4455	1.7039
5.4398	1.7061
5.4341	1.7078
5.4284	1.7090
5.4228	1.7095
5.4171	1.7095
5.4114	1.7095
5.4058	1.7090
5.4002	1.7082
5.3945	1.7075
5.3889	1.7068
5.3833	1.7063
5.3778	1.7058
5.3722	1.7056
5.3666	1.7058
5.3611	1.7063
5.3555	1.7073
5.3500	1.7087
5.3445	1.7102
5.3390	1.7117
5.3335	1.7134
5.3280	1.7148
5.3225	1.7163
5.3171	1.7180
5.3116	1.7197
5.3062	1.7217
5.3008	1.7239
5.2954	1.7263
5.2900	1.7292
5.2846	1.7322
5.2792	1.7356
5.2738	1.7388
5.2684	1.7424
5.2631	1.7458
5.2578	1.7498
5.2524	1.7537
5.2471	1.7576
5.2418	1.7612
5.2365	1.7649
5.2312	1.7681
5.2260	1.7710
5.2207	1.7734
5.2154	1.7759
5.2102	1.7778
5.2050	1.7798
5.1998	1.7817
5.1945	1.7832
5.1893	1.7847
5.1842	1.7861
5.1790	1.7873
5.1738	1.7888
5.1686	1.7905
5.1635	1.7922
5.1584	1.7944
5.1532	1.7964
5.1481	1.7983
5.1430	1.8000
5.1379	1.8018
5.1328	1.8030
5.1277	1.8042
5.1227	1.8054
5.1176	1.8066
5.1126	1.8079
5.1075	1.8091
5.1025	1.8101
5.0975	1.8110
5.0925	1.8115
5.0875	1.8118
5.0825	1.8115
5.0775	1.8113
5.0726	1.8110
5.0676	1.8110
5.0627	1.8113
5.0577	1.8118
5.0528	1.8125
5.0479	1.8132
5.0430	1.8142
5.0380	1.8152
5.0332	1.8162
5.0283	1.8169
5.0234	1.8174
5.0185	1.8179
5.0137	1.8181
5.0088	1.8184
5.0040	1.8186
4.9992	1.8193
4.9944	1.8201
4.9896	1.8213
4.9848	1.8227
4.9800	1.8245
4.9752	1.8264
4.9704	1.8284
4.9657	1.8301
4.9609	1.8313
4.9562	1.8323
4.9514	1.8330
4.9467	1.8332
4.9420	1.8340
4.9373	1.8345
4.9326	1.8354
4.9279	1.8367
4.9232	1.8381
4.9186	1.8394
4.9139	1.8403
4.9092	1.8413
4.9046	1.8423
4.9000	1.8430
4.8953	1.8440
4.8907	1.8450
4.8861	1.8462
4.8815	1.8474
4.8769	1.8484
4.8723	1.8491
4.8678	1.8496
4.8632	1.8496
4.8586	1.8494
4.8541	1.8486
4.8495	1.8481
4.8450	1.8474
4.8405	1.8469
4.8360	1.8467
4.8315	1.8464
4.8270	1.8467
4.8225	1.8469
4.8180	1.8469
4.8135	1.8469
4.8090	1.8467
4.8046	1.8459
4.8001	1.8447
4.7957	1.8435
4.7913	1.8425
4.7868	1.8415
4.7824	1.8411
4.7780	1.8406
4.7736	1.8406
4.7692	1.8403
4.7648	1.8401
4.7605	1.8398
4.7561	1.8396
4.7517	1.8391
4.7474	1.8389
4.7431	1.8386
4.7387	1.8386
4.7344	1.8386
4.7301	1.8386
4.7258	1.8384
4.7215	1.8381
4.7172	1.8374
4.7129	1.8364
4.7086	1.8354
4.7043	1.8342
4.7000	1.8328
4.6958	1.8315
4.6915	1.8303
4.6873	1.8293
4.6831	1.8286
4.6788	1.8284
4.6746	1.8286
4.6704	1.8291
4.6662	1.8296
4.6620	1.8303
4.6578	1.8306
4.6536	1.8306
4.6495	1.8303
4.6453	1.8303
4.6411	1.8301
4.6370	1.8303
4.6328	1.8306
4.6287	1.8313
4.6246	1.8318
4.6205	1.8323
4.6163	1.8328
4.6122	1.8332
4.6081	1.8337
4.6040	1.8340
4.6000	1.8342
4.5959	1.8347
4.5918	1.8352
4.5877	1.8359
4.5837	1.8364
4.5796	1.8374
4.5756	1.8379
4.5716	1.8386
4.5675	1.8389
4.5635	1.8389
4.5595	1.8386
4.5555	1.8384
4.5515	1.8381
4.5475	1.8379
4.5435	1.8379
4.5395	1.8381
4.5356	1.8384
4.5316	1.8386
4.5276	1.8389
4.5237	1.8386
4.5197	1.8384
4.5158	1.8379
4.5119	1.8372
4.5080	1.8367
4.5040	1.8362
4.5001	1.8359
4.4962	1.8357
4.4923	1.8354
4.4884	1.8352
4.4846	1.8350
4.4807	1.8350
4.4768	1.8347
4.4730	1.8350
4.4691	1.8354
4.4652	1.8359
4.4614	1.8367
4.4576	1.8376
4.4537	1.8384
4.4499	1.8389
4.4461	1.8394
4.4423	1.8398
4.4385	1.8401
4.4347	1.8403
4.4309	1.8406
4.4271	1.8408
4.4233	1.8413
4.4196	1.8418
4.4158	1.8423
4.4120	1.8430
4.4083	1.8435
4.4045	1.8442
4.4008	1.8447
4.3971	1.8450
4.3934	1.8452
4.3896	1.8452
4.3859	1.8452
4.3822	1.8452
4.3785	1.8452
4.3748	1.8452
4.3711	1.8455
4.3674	1.8457
4.3638	1.8462
4.3601	1.8462
4.3564	1.8462
4.3528	1.8459
4.3491	1.8457
4.3455	1.8455
4.3418	1.8452
4.3382	1.8455
4.3346	1.8457
4.3310	1.8462
4.3273	1.8467
4.3237	1.8472
4.3201	1.8472
4.3165	1.8469
4.3129	1.8464
4.3094	1.8457
4.3058	1.8447
4.3022	1.8440
4.2986	1.8435
4.2951	1.8433
4.2915	1.8433
4.2880	1.8433
4.2844	1.8433
4.2809	1.8430
4.2774	1.8430
4.2738	1.8428
4.2703	1.8425
4.2668	1.8423
4.2633	1.8425
4.2598	1.8428
4.2563	1.8433
4.2528	1.8440
4.2493	1.8450
4.2458	1.8459
4.2424	1.8467
4.2389	1.8477
4.2354	1.8484
4.2320	1.8491
4.2285	1.8496
4.2251	1.8501
4.2216	1.8503
4.2182	1.8506
4.2148	1.8508
4.2113	1.8511
4.2079	1.8513
4.2045	1.8511
4.2011	1.8508
4.1977	1.8501
4.1943	1.8494
4.1909	1.8486
4.1875	1.8479
4.1841	1.8477
4.1808	1.8479
4.1774	1.8484
4.1740	1.8486
4.1707	1.8491
4.1673	1.8491
4.1640	1.8486
4.1606	1.8481
4.1573	1.8477
4.1540	1.8472
4.1506	1.8472
4.1473	1.8472
4.1440	1.8477
4.1407	1.8477
4.1374	1.8477
4.1341	1.8472
4.1308	1.8464
4.1275	1.8457
4.1242	1.8447
4.1209	1.8440
4.1177	1.8433
4.1144	1.8430
4.1111	1.8428
4.1079	1.8428
4.1046	1.8428
4.1014	1.8425
4.0981	1.8423
4.0949	1.8420
4.0917	1.8415
4.0884	1.8411
4.0852	1.8406
4.0820	1.8398
4.0788	1.8396
4.0756	1.8391
4.0724	1.8391
4.0692	1.8391
4.0660	1.8391
4.0628	1.8391
4.0596	1.8389
4.0565	1.8384
4.0533	1.8379
4.0501	1.8369
4.0470	1.8359
4.0438	1.8350
4.0406	1.8340
4.0375	1.8332
4.0344	1.8325
4.0312	1.8318
4.0281	1.8311
4.0250	1.8306
4.0218	1.8296
4.0187	1.8286
4.0156	1.8276
4.0125	1.8267
4.0094	1.8254
4.0063	1.8240
4.0032	1.8225
4.0001	1.8210
3.9970	1.8196
3.9940	1.8179
3.9909	1.8162
3.9878	1.8147
3.9847	1.8132
3.9817	1.8118
3.9786	1.8103
3.9756	1.8091
3.9725	1.8079
3.9695	1.8064
3.9665	1.8052
3.9634	1.8037
3.9604	1.8022
3.9574	1.8010
3.9544	1.7998
3.9513	1.7983
3.9483	1.7974
3.9453	1.7961
3.9423	1.7949
3.9393	1.7939
3.9363	1.7930
3.9333	1.7920
3.9304	1.7908
3.9274	1.7898
3.9244	1.7888
3.9214	1.7878
3.9185	1.7871
3.9155	1.7869
3.9126	1.7866
3.9096	1.7864
3.9067	1.7861
3.9037	1.7861
3.9008	1.7859
3.8979	1.7854
3.8949	1.7849
3.8920	1.7842
3.8891	1.7830
3.8862	1.7815
3.8833	1.7798
3.8804	1.7776
3.8775	1.7754
3.8746	1.7729
3.8717	1.7707
3.8688	1.7690
3.8659	1.7676
3.8630	1.7664
3.8601	1.7654
3.8573	1.7644
3.8544	1.7632
3.8515	1.7620
3.8487	1.7607
3.8458	1.7593
3.8430	1.7581
3.8401	1.7566
3.8373	1.7554
3.8344	1.7539
3.8316	1.7524
3.8288	1.7505
3.8259	1.7485
3.8231	1.7463
3.8203	1.7439
3.8175	1.7412
3.8147	1.7385
3.8119	1.7361
3.8091	1.7334
3.8063	1.7312
3.8035	1.7290
3.8007	1.7270
3.7979	1.7253
3.7951	1.7236
3.7924	1.7222
3.7896	1.7207
3.7868	1.7190
3.7841	1.7173
3.7813	1.7151
3.7785	1.7129
3.7758	1.7104
3.7730	1.7078
3.7703	1.7051
3.7676	1.7026
3.7648	1.7004
3.7621	1.6985
3.7594	1.6968
3.7566	1.6953
3.7539	1.6936
3.7512	1.6919
3.7485	1.6899
3.7458	1.6877
3.7431	1.6855
3.7404	1.6831
3.7377	1.6807
3.7350	1.6782
3.7323	1.6760
3.7296	1.6738
3.7269	1.6714
3.7242	1.6694
3.7216	1.6672
3.7189	1.6650
3.7162	1.6626
3.7136	1.6602
3.7109	1.6577
3.7083	1.6548
3.7056	1.6519
3.7030	1.6489
3.7003	1.6462
3.6977	1.6436
3.6950	1.6409
3.6924	1.6384
3.6898	1.6357
3.6872	1.6328
3.6845	1.6299
3.6819	1.6265
3.6793	1.6230
3.6767	1.6199
3.6741	1.6165
3.6715	1.6135
3.6689	1.6108
3.6663	1.6082
3.6637	1.6060
3.6611	1.6035
3.6585	1.6011
3.6560	1.5989
3.6534	1.5964
3.6508	1.5937
3.6482	1.5911
3.6457	1.5881
3.6431	1.5850
3.6406	1.5815
3.6380	1.5779
3.6355	1.5742
3.6329	1.5708
3.6304	1.5676
3.6278	1.5647
3.6253	1.5623
3.6227	1.5601
3.6202	1.5581
3.6177	1.5559
3.6152	1.5537
3.6127	1.5510
3.6101	1.5481
3.6076	1.5447
3.6051	1.5413
3.6026	1.5378
3.6001	1.5344
3.5976	1.5310
3.5951	1.5281
3.5926	1.5251
3.5901	1.5222
3.5876	1.5193
3.5852	1.5164
3.5827	1.5134
3.5802	1.5100
3.5777	1.5068
3.5753	1.5032
3.5728	1.4998
3.5704	1.4963
3.5679	1.4929
3.5654	1.4895
3.5630	1.4861
3.5605	1.4829
3.5581	1.4795
3.5557	1.4761
3.5532	1.4724
3.5508	1.4687
3.5484	1.4648
3.5459	1.4607
3.5435	1.4568
3.5411	1.4529
3.5387	1.4490
3.5363	1.4451
3.5338	1.4409
3.5314	1.4368
3.5290	1.4321
3.5266	1.4272
3.5242	1.4221
3.5218	1.4165
3.5195	1.4109
3.5171	1.4048
3.5147	1.3987
3.5123	1.3926
3.5099	1.3860
3.5075	1.3794
3.5052	1.3728
3.5028	1.3662
3.5004	1.3596
3.4981	1.3535
3.4957	1.3477
3.4934	1.3428
3.4910	1.3381
3.4887	1.3345
3.4863	1.3311
3.4840	1.3281
3.4816	1.3254
3.4793	1.3232
3.4770	1.3210
3.4746	1.3191
3.4723	1.3169
3.4700	1.3144
3.4677	1.3115
3.4653	1.3083
3.4630	1.3044
3.4607	1.3003
3.4584	1.2959
3.4561	1.2913
3.4538	1.2866
3.4515	1.2817
3.4492	1.2771
3.4469	1.2725
3.4446	1.2676
3.4423	1.2624
3.4400	1.2571
3.4378	1.2515
3.4355	1.2454
3.4332	1.2388
3.4309	1.2317
3.4287	1.2244
3.4264	1.2165
3.4241	1.2090
3.4219	1.2019
3.4196	1.1958
3.4174	1.1907
3.4151	1.1870
3.4129	1.1843
3.4106	1.1824
3.4084	1.1809
3.4061	1.1794
3.4039	1.1777
3.4017	1.1758
3.3994	1.1733
3.3972	1.1709
3.3950	1.1677
3.3928	1.1645
3.3906	1.1614
3.3883	1.1580
3.3861	1.1543
3.3839	1.1511
3.3817	1.1477
3.3795	1.1448
3.3773	1.1418
3.3751	1.1396
3.3729	1.1382
3.3707	1.1372
3.3685	1.1370
3.3663	1.1370
3.3641	1.1370
3.3620	1.1370
3.3598	1.1365
3.3576	1.1357
3.3554	1.1345
3.3533	1.1335
3.3511	1.1323
3.3489	1.1313
3.3468	1.1301
3.3446	1.1289
3.3425	1.1272
3.3403	1.1252
3.3382	1.1228
3.3360	1.1201
3.3339	1.1172
3.3317	1.1143
3.3296	1.1111
3.3274	1.1082
3.3253	1.1050
3.3232	1.1016
3.3210	1.0979
3.3189	1.0942
3.3168	1.0906
3.3147	1.0869
3.3126	1.0832
3.3104	1.0798
3.3083	1.0764
3.3062	1.0730
3.3041	1.0696
3.3020	1.0662
3.2999	1.0625
3.2978	1.0588
3.2957	1.0549
3.2936	1.0513
3.2915	1.0476
3.2894	1.0442
3.2874	1.0405
3.2853	1.0371
3.2832	1.0337
3.2811	1.0300
3.2790	1.0261
3.2770	1.0222
3.2749	1.0181
3.2728	1.0139
3.2708	1.0098
3.2687	1.0056
3.2666	1.0012
3.2646	0.99680
3.2625	0.99270
3.2605	0.98880
3.2584	0.98510
3.2564	0.98170
3.2543	0.97830
3.2523	0.97530
3.2503	0.97220
3.2482	0.96900
3.2462	0.96610
3.2442	0.96260
3.2421	0.95950
3.2401	0.95610
3.2381	0.95240
3.2361	0.94850
3.2340	0.94430
3.2320	0.94020
3.2300	0.93600
3.2280	0.93190
3.2260	0.92820
3.2240	0.92480
3.2220	0.92160
3.2200	0.91820
3.2180	0.91500
3.2160	0.91140
3.2140	0.90770
3.2120	0.90360
3.2100	0.89940
3.2080	0.89530
3.2060	0.89090
3.2040	0.88670
3.2021	0.88260
3.2001	0.87840
3.1981	0.87450
3.1961	0.87080
3.1942	0.86740
3.1922	0.86430
3.1902	0.86080
3.1883	0.85770
3.1863	0.85450
3.1844	0.85110
3.1824	0.84740
3.1805	0.84370
3.1785	0.84010
3.1766	0.83640
3.1746	0.83300
3.1727	0.82960
3.1707	0.82620
3.1688	0.82280
3.1669	0.81910
3.1649	0.81520
3.1630	0.81080
3.1611	0.80640
3.1591	0.80200
3.1572	0.79810
3.1553	0.79440
3.1534	0.79150
3.1515	0.78880
3.1495	0.78610
3.1476	0.78320
3.1457	0.78000
3.1438	0.77640
3.1419	0.77250
3.1400	0.76880
3.1381	0.76510
3.1362	0.76200
3.1343	0.75950
3.1324	0.75760
3.1305	0.75590
3.1286	0.75410
3.1268	0.75240
3.1249	0.75020
3.1230	0.74780
3.1211	0.74490
3.1192	0.74150
3.1174	0.73830
3.1155	0.73490
3.1136	0.73190
3.1117	0.72900
3.1099	0.72660
3.1080	0.72440
3.1061	0.72220
3.1043	0.72020
3.1024	0.71830
3.1006	0.71610
3.0987	0.71390
3.0969	0.71170
3.0950	0.70950
3.0932	0.70750
3.0913	0.70610
3.0895	0.70510
3.0876	0.70460
3.0858	0.70410
3.0840	0.70340
3.0821	0.70240
3.0803	0.70120
3.0785	0.69950
3.0766	0.69780
3.0748	0.69580
3.0730	0.69410
3.0712	0.69260
3.0694	0.69120
3.0675	0.68990
3.0657	0.68870
3.0639	0.68750
3.0621	0.68600
3.0603	0.68480
3.0585	0.68360
3.0567	0.68210
3.0549	0.68090
3.0531	0.67940
3.0513	0.67820
3.0495	0.67700
3.0477	0.67580
3.0459	0.67460
3.0441	0.67330
3.0423	0.67240
3.0406	0.67110
3.0388	0.66990
3.0370	0.66870
3.0352	0.66720
3.0334	0.66630
3.0317	0.66500
3.0299	0.66380
3.0281	0.66260
3.0264	0.66110
3.0246	0.65940
3.0228	0.65770
3.0211	0.65580
3.0193	0.65360
3.0176	0.65190
3.0158	0.65010
3.0140	0.64890
3.0123	0.64790
3.0105	0.64720
3.0088	0.64650
3.0070	0.64580
3.0053	0.64450
3.0036	0.64310
3.0018	0.64110
3.0001	0.63940
2.9984	0.63740
2.9966	0.63570
2.9949	0.63380
2.9932	0.63210
2.9914	0.63010
2.9897	0.62840
2.9880	0.62650
2.9863	0.62480
2.9845	0.62330
2.9828	0.62160
2.9811	0.62040
2.9794	0.61890
2.9777	0.61740
2.9760	0.61600
2.9743	0.61430
2.9726	0.61250
2.9709	0.61060
2.9692	0.60860
2.9675	0.60690
2.9658	0.60520
2.9641	0.60400
2.9624	0.60330
2.9607	0.60330
2.9590	0.60350
2.9573	0.60400
2.9556	0.60450
2.9539	0.60470
2.9523	0.60470
2.9506	0.60420
2.9489	0.60380
2.9472	0.60280
2.9455	0.60160
2.9439	0.60060
2.9422	0.59940
2.9405	0.59810
2.9389	0.59690
2.9372	0.59570
2.9355	0.59450
2.9339	0.59350
2.9322	0.59300
2.9306	0.59250
2.9289	0.59230
2.9272	0.59230
2.9256	0.59250
2.9239	0.59330
2.9223	0.59400
2.9207	0.59500
2.9190	0.59570
2.9174	0.59670
2.9157	0.59740
2.9141	0.59790
2.9124	0.59810
2.9108	0.59810
2.9092	0.59790
2.9075	0.59770
2.9059	0.59720
2.9043	0.59670
2.9027	0.59590
2.9010	0.59500
2.8994	0.59370
2.8978	0.59250
2.8962	0.59160
2.8946	0.59080
2.8929	0.59060
2.8913	0.59060
2.8897	0.59080
2.8881	0.59110
2.8865	0.59110
2.8849	0.59080
2.8833	0.59030
2.8817	0.58960
2.8801	0.58910
2.8785	0.58860
2.8769	0.58840
2.8753	0.58810
2.8737	0.58810
2.8721	0.58790
2.8705	0.58760
2.8689	0.58740
2.8673	0.58690
2.8658	0.58670
2.8642	0.58640
2.8626	0.58640
2.8610	0.58640
2.8594	0.58720
2.8579	0.58790
2.8563	0.58890
2.8547	0.59010
2.8531	0.59110
2.8516	0.59200
2.8500	0.59280
2.8484	0.59350
2.8469	0.59400
2.8453	0.59500
2.8437	0.59620
2.8422	0.59770
2.8406	0.59940
2.8391	0.60160
2.8375	0.60350
2.8360	0.60550
2.8344	0.60720
2.8329	0.60840
2.8313	0.60940
2.8298	0.61010
2.8282	0.61040
2.8267	0.61060
2.8252	0.61080
2.8236	0.61130
2.8221	0.61160
2.8205	0.61230
2.8190	0.61300
2.8175	0.61430
2.8159	0.61520
2.8144	0.61650
2.8129	0.61740
2.8114	0.61840
2.8098	0.61960
2.8083	0.62080
2.8068	0.62180
2.8053	0.62330
2.8038	0.62450
2.8022	0.62600
2.8007	0.62740
2.7992	0.62940
2.7977	0.63130
2.7962	0.63380
2.7947	0.63620
2.7932	0.63870
2.7917	0.64040
2.7902	0.64180
2.7887	0.64280
2.7872	0.64360
2.7857	0.64430
2.7842	0.64550
2.7827	0.64700
2.7812	0.64890
2.7797	0.65110
2.7782	0.65330
2.7767	0.65500
2.7752	0.65650
2.7738	0.65770
2.7723	0.65890
2.7708	0.66060
2.7693	0.66280
2.7678	0.66550
2.7664	0.66820
2.7649	0.67070
2.7634	0.67280
2.7619	0.67460
2.7605	0.67600
2.7590	0.67770
2.7575	0.67970
2.7561	0.68240
2.7546	0.68580
2.7531	0.68970
2.7517	0.69410
2.7502	0.69850
2.7488	0.70290
2.7473	0.70730
2.7458	0.71090
2.7444	0.71440
2.7429	0.71700
2.7415	0.71900
2.7400	0.72020
2.7386	0.72090
2.7371	0.72070
2.7357	0.72020
2.7343	0.71900
2.7328	0.71750
2.7314	0.71560
2.7299	0.71310
2.7285	0.71020
2.7271	0.70630
2.7256	0.70190
2.7242	0.69630
2.7228	0.68990
2.7213	0.68240
2.7199	0.67410
2.7185	0.66500
2.7171	0.65600
2.7156	0.64770
2.7142	0.64140
2.7128	0.63840
2.7114	0.64010
2.7100	0.64700
2.7085	0.65940
2.7071	0.67750
2.7057	0.70020
2.7043	0.72730
2.7029	0.75780
2.7015	0.79130
2.7001	0.82760
2.6987	0.86600
2.6973	0.90600
2.6959	0.94750
2.6945	0.98950
2.6931	1.0317
2.6917	1.0735
2.6903	1.1150
2.6889	1.1560
2.6875	1.1958
2.6861	1.2346
2.6847	1.2712
2.6833	1.3052
2.6819	1.3357
2.6805	1.3618
2.6791	1.3840
2.6778	1.4021
2.6764	1.4167
2.6750	1.4287
2.6736	1.4387
2.6722	1.4473
2.6709	1.4543
2.6695	1.4604
2.6681	1.4658
2.6667	1.4700
2.6654	1.4736
2.6640	1.4763
2.6626	1.4785
2.6613	1.4805
2.6599	1.4819
2.6585	1.4829
2.6572	1.4841
2.6558	1.4851
2.6545	1.4858
2.6531	1.4871
2.6517	1.4883
2.6504	1.4897
2.6490	1.4912
2.6477	1.4929
2.6463	1.4946
2.6450	1.4963
2.6436	1.4978
2.6423	1.4990
2.6409	1.5000
2.6396	1.5005
2.6382	1.5007
2.6369	1.5005
2.6356	1.4998
2.6342	1.4985
2.6329	1.4971
2.6315	1.4958
2.6302	1.4949
2.6289	1.4946
2.6275	1.4949
2.6262	1.4956
2.6249	1.4968
2.6236	1.4980
2.6222	1.4990
2.6209	1.4995
2.6196	1.4998
2.6183	1.4993
2.6169	1.4988
2.6156	1.4980
2.6143	1.4971
2.6130	1.4966
2.6117	1.4961
2.6103	1.4956
2.6090	1.4949
2.6077	1.4941
2.6064	1.4932
2.6051	1.4919
2.6038	1.4905
2.6025	1.4893
2.6012	1.4880
2.5999	1.4875
2.5986	1.4873
2.5973	1.4878
2.5960	1.4888
2.5947	1.4897
2.5934	1.4907
2.5921	1.4915
2.5908	1.4912
2.5895	1.4907
2.5882	1.4895
2.5869	1.4880
2.5856	1.4866
2.5843	1.4853
2.5830	1.4849
2.5817	1.4849
2.5805	1.4851
2.5792	1.4856
2.5779	1.4861
2.5766	1.4863
2.5753	1.4858
2.5741	1.4846
2.5728	1.4827
2.5715	1.4805
2.5702	1.4778
2.5690	1.4756
2.5677	1.4739
2.5664	1.4729
2.5651	1.4729
2.5639	1.4739
2.5626	1.4753
2.5613	1.4770
2.5601	1.4785
2.5588	1.4792
2.5575	1.4792
2.5563	1.4783
2.5550	1.4768
2.5538	1.4748
2.5525	1.4729
2.5513	1.4707
2.5500	1.4687
2.5487	1.4670
2.5475	1.4663
2.5462	1.4661
2.5450	1.4663
2.5437	1.4675
2.5425	1.4690
2.5413	1.4705
2.5400	1.4719
2.5388	1.4729
2.5375	1.4734
2.5363	1.4736
2.5350	1.4736
2.5338	1.4731
2.5326	1.4724
2.5313	1.4714
2.5301	1.4700
2.5289	1.4683
2.5276	1.4665
2.5264	1.4648
2.5252	1.4634
2.5239	1.4624
2.5227	1.4614
2.5215	1.4609
2.5202	1.4604
2.5190	1.4600
2.5178	1.4595
2.5166	1.4590
2.5154	1.4585
2.5141	1.4578
2.5129	1.4573
2.5117	1.4570
2.5105	1.4568
2.5093	1.4570
2.5081	1.4575
2.5068	1.4587
2.5056	1.4600
2.5044	1.4612
2.5032	1.4622
2.5020	1.4624
2.5008	1.4617
2.4996	1.4600
2.4984	1.4580
2.4972	1.4556
2.4960	1.4531
2.4948	1.4514
2.4936	1.4502
2.4924	1.4497
2.4912	1.4497
2.4900	1.4502
2.4888	1.4507
2.4876	1.4512
2.4864	1.4514
2.4852	1.4512
2.4840	1.4507
2.4828	1.4499
2.4816	1.4490
2.4805	1.4480
2.4793	1.4470
2.4781	1.4463
2.4769	1.4456
2.4757	1.4446
2.4745	1.4431
2.4734	1.4414
2.4722	1.4392
2.4710	1.4370
2.4698	1.4351
2.4686	1.4341
2.4675	1.4338
2.4663	1.4348
2.4651	1.4363
2.4640	1.4382
2.4628	1.4399
2.4616	1.4407
2.4604	1.4404
2.4593	1.4390
2.4581	1.4363
2.4569	1.4329
2.4558	1.4290
2.4546	1.4253
2.4535	1.4221
2.4523	1.4194
2.4511	1.4175
2.4500	1.4158
2.4488	1.4145
2.4477	1.4141
2.4465	1.4138
2.4454	1.4141
2.4442	1.4145
2.4431	1.4155
2.4419	1.4167
2.4408	1.4175
2.4396	1.4182
2.4385	1.4185
2.4373	1.4185
2.4362	1.4180
2.4350	1.4175
2.4339	1.4165
2.4327	1.4155
2.4316	1.4145
2.4305	1.4136
2.4293	1.4123
2.4282	1.4116
2.4270	1.4111
2.4259	1.4109
2.4248	1.4111
2.4236	1.4111
2.4225	1.4111
2.4214	1.4106
2.4202	1.4097
2.4191	1.4084
2.4180	1.4070
2.4169	1.4058
2.4157	1.4050
2.4146	1.4045
2.4135	1.4048
2.4124	1.4053
2.4112	1.4062
2.4101	1.4072
2.4090	1.4080
2.4079	1.4087
2.4068	1.4092
2.4056	1.4094
2.4045	1.4094
2.4034	1.4094
2.4023	1.4092
2.4012	1.4087
2.4001	1.4077
2.3990	1.4067
2.3979	1.4053
2.3967	1.4038
2.3956	1.4026
2.3945	1.4016
2.3934	1.4014
2.3923	1.4016
2.3912	1.4023
2.3901	1.4033
2.3890	1.4040
2.3879	1.4045
2.3868	1.4045
2.3857	1.4038
2.3846	1.4026
2.3835	1.4014
2.3824	1.4001
2.3813	1.3994
2.3802	1.3992
2.3791	1.3992
2.3781	1.3997
2.3770	1.4004
2.3759	1.4016
2.3748	1.4028
2.3737	1.4045
2.3726	1.4065
2.3715	1.4082
2.3704	1.4099
2.3694	1.4109
2.3683	1.4111
2.3672	1.4106
2.3661	1.4099
2.3650	1.4087
2.3640	1.4077
2.3629	1.4070
2.3618	1.4062
2.3607	1.4058
2.3597	1.4050
2.3586	1.4043
2.3575	1.4033
2.3564	1.4021
2.3554	1.4006
2.3543	1.3989
2.3532	1.3975
2.3522	1.3960
2.3511	1.3953
2.3500	1.3950
2.3490	1.3953
2.3479	1.3962
2.3468	1.3975
2.3458	1.3982
2.3447	1.3984
2.3436	1.3979
2.3426	1.3965
2.3415	1.3945
2.3405	1.3923
2.3394	1.3904
2.3384	1.3889
2.3373	1.3879
2.3363	1.3874
2.3352	1.3872
2.3342	1.3870
2.3331	1.3870
2.3321	1.3870
2.3310	1.3870
2.3300	1.3874
2.3289	1.3882
2.3279	1.3894
2.3268	1.3904
2.3258	1.3916
2.3247	1.3921
2.3237	1.3923
2.3226	1.3916
2.3216	1.3906
2.3206	1.3892
2.3195	1.3877
2.3185	1.3865
2.3175	1.3857
2.3164	1.3857
2.3154	1.3865
2.3144	1.3877
2.3133	1.3889
2.3123	1.3896
2.3113	1.3896
2.3102	1.3892
2.3092	1.3877
2.3082	1.3857
2.3071	1.3835
2.3061	1.3813
2.3051	1.3799
2.3041	1.3789
2.3030	1.3789
2.3020	1.3794
2.3010	1.3806
2.3000	1.3818
2.2990	1.3833
2.2979	1.3843
2.2969	1.3848
2.2959	1.3845
2.2949	1.3835
2.2939	1.3823
2.2929	1.3811
2.2918	1.3799
2.2908	1.3794
2.2898	1.3791
2.2888	1.3794
2.2878	1.3801
2.2868	1.3809
2.2858	1.3818
2.2848	1.3828
2.2838	1.3843
2.2828	1.3857
2.2818	1.3870
2.2808	1.3879
2.2798	1.3884
2.2787	1.3882
2.2777	1.3874
2.2767	1.3865
2.2757	1.3855
2.2747	1.3845
2.2738	1.3840
2.2728	1.3835
2.2718	1.3828
2.2708	1.3818
2.2698	1.3809
2.2688	1.3796
2.2678	1.3784
2.2668	1.3777
2.2658	1.3777
2.2648	1.3782
2.2638	1.3794
2.2628	1.3809
2.2618	1.3823
2.2609	1.3835
2.2599	1.3843
2.2589	1.3843
2.2579	1.3840
2.2569	1.3838
2.2559	1.3833
2.2550	1.3831
2.2540	1.3828
2.2530	1.3826
2.2520	1.3821
2.2510	1.3816
2.2501	1.3809
2.2491	1.3799
2.2481	1.3794
2.2471	1.3791
2.2462	1.3794
2.2452	1.3799
2.2442	1.3804
2.2433	1.3811
2.2423	1.3818
2.2413	1.3826
2.2403	1.3833
2.2394	1.3840
2.2384	1.3848
2.2374	1.3857
2.2365	1.3862
2.2355	1.3865
2.2345	1.3865
2.2336	1.3860
2.2326	1.3855
2.2317	1.3845
2.2307	1.3838
2.2297	1.3826
2.2288	1.3813
2.2278	1.3801
2.2269	1.3791
2.2259	1.3784
2.2250	1.3779
2.2240	1.3774
2.2231	1.3774
2.2221	1.3772
2.2211	1.3772
2.2202	1.3772
2.2192	1.3769
2.2183	1.3767
2.2173	1.3767
2.2164	1.3765
2.2155	1.3760
2.2145	1.3757
2.2136	1.3755
2.2126	1.3752
2.2117	1.3748
2.2107	1.3743
2.2098	1.3738
2.2088	1.3730
2.2079	1.3723
2.2070	1.3718
2.2060	1.3716
2.2051	1.3721
2.2041	1.3733
2.2032	1.3750
2.2023	1.3769
2.2013	1.3789
2.2004	1.3806
2.1995	1.3818
2.1985	1.3828
2.1976	1.3833
2.1967	1.3838
2.1957	1.3840
2.1948	1.3843
2.1939	1.3843
2.1930	1.3843
2.1920	1.3840
2.1911	1.3835
2.1902	1.3831
2.1893	1.3828
2.1883	1.3828
2.1874	1.3833
2.1865	1.3845
2.1856	1.3857
2.1846	1.3867
2.1837	1.3872
2.1828	1.3865
2.1819	1.3853
2.1810	1.3833
2.1800	1.3821
2.1791	1.3818
2.1782	1.3831
2.1773	1.3857
2.1764	1.3892
2.1755	1.3926
2.1746	1.3950
2.1736	1.3962
2.1727	1.3957
2.1718	1.3940
2.1709	1.3916
2.1700	1.3894
2.1691	1.3879
2.1682	1.3877
2.1673	1.3889
2.1664	1.3914
2.1655	1.3943
2.1646	1.3975
2.1637	1.3999
2.1628	1.4011
2.1619	1.4011
2.1610	1.4001
2.1601	1.3984
2.1592	1.3967
2.1583	1.3953
2.1574	1.3943
2.1565	1.3940
2.1556	1.3943
2.1547	1.3948
2.1538	1.3953
2.1529	1.3953
2.1520	1.3953
2.1511	1.3948
2.1502	1.3943
2.1493	1.3940
2.1484	1.3945
2.1475	1.3953
2.1466	1.3965
2.1458	1.3977
2.1449	1.3987
2.1440	1.3992
2.1431	1.3989
2.1422	1.3984
2.1413	1.3975
2.1404	1.3962
2.1396	1.3950
2.1387	1.3936
2.1378	1.3916
2.1369	1.3892
2.1360	1.3865
2.1352	1.3838
2.1343	1.3813
2.1334	1.3796
2.1325	1.3789
2.1316	1.3791
2.1308	1.3801
2.1299	1.3816
2.1290	1.3831
2.1281	1.3840
2.1273	1.3848
2.1264	1.3850
2.1255	1.3857
2.1247	1.3865
2.1238	1.3877
2.1229	1.3892
2.1220	1.3906
2.1212	1.3914
2.1203	1.3911
2.1194	1.3899
2.1186	1.3882
2.1177	1.3867
2.1168	1.3855
2.1160	1.3855
2.1151	1.3862
2.1143	1.3879
2.1134	1.3894
2.1125	1.3906
2.1117	1.3911
2.1108	1.3906
2.1100	1.3894
2.1091	1.3882
2.1082	1.3874
2.1074	1.3872
2.1065	1.3874
2.1057	1.3884
2.1048	1.3892
2.1040	1.3896
2.1031	1.3896
2.1023	1.3889
2.1014	1.3882
2.1005	1.3877
2.0997	1.3877
2.0988	1.3882
2.0980	1.3892
2.0971	1.3901
2.0963	1.3909
2.0955	1.3914
2.0946	1.3911
2.0938	1.3909
2.0929	1.3904
2.0921	1.3904
2.0912	1.3904
2.0904	1.3909
2.0895	1.3916
2.0887	1.3923
2.0879	1.3933
2.0870	1.3948
2.0862	1.3965
2.0853	1.3979
2.0845	1.4006
2.0837	1.4019
2.0828	1.4009
2.0820	1.4050
2.0812	1.3936
2.0803	1.3889
2.0795	1.3926
