Name:  ALHA 77155
Type:  Stony Meteorites
Class:  Ordinary Chondrite
Subclass:  L6
Particle Size:  0-75 micrometers
Sample No.:  ALHA 77155
Owner:  JHU
Wavelength range:  IR
Origin:  Meteorite found in Antarctica in 1977.  Smithsonian sample No. USNM 
 ALHA 77155.12.
Description:  None.





Measurement:  Bidirectional reflectance
First Column:  X
Second Column:  Y
X Units:  Wavelength (micrometers)
Y Units:  Reflectance (percent)
First X Value:  25.044
Last X Value:  2.0795
Number of X Values:  2286
Additional information:  None

25.044	1.2483
24.924	1.1152
24.805	1.3447
24.686	1.7502
24.569	1.6343
24.454	1.3821
24.339	1.2500
24.225	1.2935
24.112	1.3437
24.001	1.2830
23.890	1.1436
23.781	1.0488
23.672	1.1641
23.564	1.1763
23.458	1.0996
23.352	1.0815
23.247	1.1782
23.144	1.2329
23.041	1.1685
22.939	1.1355
22.838	1.0879
22.738	1.0518
22.638	1.1606
22.540	1.1716
22.442	1.1082
22.345	0.99980
22.250	1.0300
22.154	1.0181
22.060	1.0034
21.967	1.0447
21.874	0.98390
21.782	0.97240
21.691	0.99410
21.601	1.0256
21.511	1.0146
21.422	0.95460
21.334	0.99170
21.247	1.0002
21.160	0.94970
21.074	0.96360
20.988	1.0159
20.904	1.0862
20.820	1.1355
20.737	1.1455
20.654	1.2078
20.572	1.3088
20.491	1.3455
20.410	1.2971
20.330	1.3384
20.251	1.3877
20.172	1.4316
20.094	1.4592
20.016	1.4236
19.939	1.4072
19.863	1.4690
19.787	1.5176
19.712	1.4980
19.637	1.4807
19.563	1.4797
19.489	1.5000
19.416	1.5161
19.344	1.5017
19.272	1.4792
19.201	1.4487
19.130	1.4336
19.059	1.3728
18.990	1.3098
18.920	1.2908
18.851	1.2888
18.783	1.2642
18.715	1.2637
18.648	1.2898
18.581	1.2793
18.515	1.3037
18.449	1.3525
18.384	1.3215
18.319	1.2356
18.254	1.2622
18.190	1.2805
18.126	1.2605
18.063	1.2358
18.001	1.2458
17.938	1.2273
17.876	1.1973
17.815	1.1960
17.754	1.1968
17.693	1.1890
17.633	1.1921
17.573	1.1809
17.514	1.1374
17.455	1.1450
17.396	1.1599
17.338	1.1279
17.280	1.1045
17.223	1.1086
17.166	1.1211
17.109	1.1155
17.053	1.0845
16.997	1.0498
16.942	1.0505
16.886	1.0669
16.832	1.0728
16.777	1.0605
16.723	1.0447
16.669	1.0623
16.616	1.0547
16.563	1.0537
16.510	1.0493
16.458	1.0391
16.406	1.0364
16.354	1.0181
16.302	1.0107
16.251	1.0020
16.200	0.96750
16.150	0.95850
16.100	0.97920
16.050	0.96390
16.000	0.93410
15.951	0.90600
15.902	0.89500
15.854	0.88180
15.805	0.83350
15.757	0.78470
15.710	0.78420
15.662	0.80540
15.615	0.80860
15.568	0.78250
15.521	0.79200
15.475	0.76510
15.429	0.75240
15.383	0.76760
15.338	0.74630
15.292	0.71310
15.248	0.72750
15.203	0.76340
15.158	0.78370
15.114	0.81930
15.070	0.86400
15.027	0.88060
14.983	0.89160
14.940	0.92380
14.897	0.97190
14.854	0.98630
14.812	0.97120
14.770	0.98780
14.728	0.99020
14.686	1.0310
14.645	1.0488
14.603	1.0449
14.562	1.1001
14.521	1.1404
14.481	1.1504
14.441	1.1724
14.400	1.2007
14.361	1.2244
14.321	1.2380
14.281	1.2380
14.242	1.2661
14.203	1.3008
14.164	1.3035
14.126	1.2959
14.087	1.3010
14.049	1.3123
14.011	1.3105
13.973	1.3110
13.936	1.3022
13.899	1.3003
13.861	1.3000
13.824	1.3018
13.788	1.2913
13.751	1.2974
13.715	1.3015
13.679	1.3149
13.643	1.3625
13.607	1.3931
13.571	1.4099
13.536	1.4441
13.500	1.4394
13.465	1.4592
13.430	1.4868
13.396	1.5063
13.361	1.5684
13.327	1.6208
13.293	1.6599
13.259	1.6965
13.225	1.7126
13.191	1.7290
13.158	1.7480
13.124	1.7664
13.091	1.7866
13.058	1.7900
13.026	1.7998
12.993	1.8083
12.960	1.8086
12.928	1.8020
12.896	1.8054
12.864	1.8108
12.832	1.7961
12.800	1.7847
12.769	1.7844
12.737	1.7690
12.706	1.7554
12.675	1.7539
12.644	1.7622
12.614	1.7471
12.583	1.7327
12.552	1.7324
12.522	1.7266
12.492	1.7205
12.462	1.7185
12.432	1.6919
12.402	1.6975
12.373	1.7026
12.343	1.6811
12.314	1.6580
12.285	1.6401
12.256	1.6165
12.227	1.5994
12.198	1.5698
12.169	1.5124
12.141	1.4595
12.113	1.4243
12.084	1.4040
12.056	1.3608
12.028	1.3198
12.000	1.2942
11.973	1.2622
11.945	1.2244
11.918	1.1914
11.890	1.1804
11.863	1.1692
11.836	1.1733
11.809	1.1929
11.782	1.2146
11.755	1.2393
11.729	1.2612
11.702	1.2722
11.676	1.2903
11.650	1.3154
11.624	1.3284
11.598	1.3584
11.572	1.4080
11.546	1.4507
11.520	1.4958
11.495	1.5317
11.469	1.5769
11.444	1.6338
11.419	1.6724
11.394	1.6985
11.369	1.7068
11.344	1.7183
11.319	1.7415
11.294	1.7395
11.270	1.7275
11.245	1.7263
11.221	1.7080
11.197	1.6782
11.173	1.6443
11.149	1.6165
11.125	1.5991
11.101	1.5884
11.077	1.5603
11.054	1.5510
11.030	1.5542
11.007	1.5486
10.983	1.5520
10.960	1.5637
10.937	1.5608
10.914	1.5752
10.891	1.5991
10.868	1.6199
10.846	1.6414
10.823	1.6765
10.800	1.7031
10.778	1.6999
10.755	1.7041
10.733	1.7209
10.711	1.7180
10.689	1.7165
10.667	1.7109
10.645	1.7041
10.623	1.6926
10.602	1.6675
10.580	1.6409
10.558	1.6074
10.537	1.5813
10.516	1.5278
10.494	1.4802
10.473	1.4724
10.452	1.4719
10.431	1.4524
10.410	1.4277
10.389	1.3997
10.368	1.3745
10.348	1.3745
10.327	1.3870
10.306	1.3943
10.286	1.4141
10.266	1.4333
10.245	1.4397
10.225	1.4292
10.205	1.4097
10.185	1.3977
10.165	1.3738
10.145	1.3425
10.125	1.3267
10.106	1.3110
10.086	1.2876
10.066	1.2659
10.047	1.2488
10.027	1.2432
10.008	1.2529
9.9887	1.2476
9.9695	1.2390
9.9504	1.2339
9.9313	1.2278
9.9123	1.2234
9.8934	1.1997
9.8746	1.1787
9.8558	1.1785
9.8371	1.1663
9.8185	1.1536
9.7999	1.1675
9.7814	1.1799
9.7630	1.1904
9.7447	1.2009
9.7264	1.2185
9.7082	1.2434
9.6900	1.2725
9.6719	1.3005
9.6539	1.3284
9.6360	1.3567
9.6181	1.3809
9.6003	1.4143
9.5825	1.4436
9.5649	1.4641
9.5472	1.4849
9.5297	1.4961
9.5122	1.5083
9.4948	1.5188
9.4774	1.5139
9.4601	1.5173
9.4429	1.5290
9.4257	1.5173
9.4086	1.5029
9.3916	1.4915
9.3746	1.4819
9.3577	1.4597
9.3408	1.4343
9.3240	1.4211
9.3073	1.4055
9.2906	1.3872
9.2740	1.3633
9.2574	1.3464
9.2409	1.3364
9.2245	1.3328
9.2081	1.3276
9.1918	1.3208
9.1755	1.3215
9.1593	1.3249
9.1431	1.3315
9.1270	1.3384
9.1110	1.3391
9.0950	1.3484
9.0791	1.3503
9.0632	1.3418
9.0474	1.3435
9.0316	1.3486
9.0159	1.3364
9.0003	1.3284
8.9847	1.3218
8.9691	1.2961
8.9536	1.2817
8.9382	1.2686
8.9228	1.2483
8.9075	1.2436
8.8922	1.2568
8.8770	1.2637
8.8618	1.2605
8.8467	1.2546
8.8316	1.2346
8.8166	1.2136
8.8016	1.1956
8.7867	1.1772
8.7718	1.1736
8.7570	1.1892
8.7422	1.1997
8.7275	1.1995
8.7129	1.1919
8.6982	1.1692
8.6837	1.1499
8.6692	1.1465
8.6547	1.1460
8.6403	1.1406
8.6259	1.1304
8.6116	1.1384
8.5973	1.1475
8.5830	1.1506
8.5688	1.1594
8.5547	1.1721
8.5406	1.1824
8.5266	1.1995
8.5126	1.2219
8.4986	1.2410
8.4847	1.2532
8.4708	1.2766
8.4570	1.3171
8.4432	1.3418
8.4295	1.3686
8.4158	1.4067
8.4022	1.4402
8.3886	1.4770
8.3750	1.5281
8.3615	1.5671
8.3481	1.6079
8.3347	1.6526
8.3213	1.6956
8.3079	1.7441
8.2946	1.8040
8.2814	1.8540
8.2682	1.8953
8.2550	1.9409
8.2419	1.9929
8.2288	2.0405
8.2158	2.0842
8.2028	2.1265
8.1898	2.1680
8.1769	2.2051
8.1640	2.2458
8.1512	2.2832
8.1384	2.3232
8.1256	2.3657
8.1129	2.3967
8.1002	2.4292
8.0876	2.4712
8.0750	2.5032
8.0624	2.5373
8.0499	2.5757
8.0374	2.6103
8.0250	2.6428
8.0126	2.6789
8.0002	2.7158
7.9879	2.7527
7.9756	2.7886
7.9634	2.8149
7.9512	2.8442
7.9390	2.8789
7.9268	2.9050
7.9147	2.9243
7.9027	2.9509
7.8906	2.9856
7.8786	3.0207
7.8667	3.0503
7.8548	3.0688
7.8429	3.0945
7.8310	3.1284
7.8192	3.1536
7.8075	3.1789
7.7957	3.2009
7.7840	3.2234
7.7723	3.2451
7.7607	3.2722
7.7491	3.2981
7.7375	3.3205
7.7260	3.3425
7.7145	3.3616
7.7031	3.3769
7.6916	3.3935
7.6802	3.4075
7.6689	3.4180
7.6575	3.4309
7.6462	3.4421
7.6350	3.4507
7.6238	3.4592
7.6126	3.4748
7.6014	3.4927
7.5903	3.5083
7.5792	3.5290
7.5681	3.5444
7.5571	3.5539
7.5461	3.5735
7.5351	3.6003
7.5242	3.6167
7.5133	3.6313
7.5024	3.6504
7.4916	3.6731
7.4807	3.6985
7.4700	3.7112
7.4592	3.7266
7.4485	3.7436
7.4378	3.7551
7.4272	3.7739
7.4165	3.7927
7.4059	3.8083
7.3954	3.8313
7.3848	3.8528
7.3743	3.8706
7.3639	3.8923
7.3534	3.9162
7.3430	3.9360
7.3326	3.9602
7.3223	3.9819
7.3119	4.0032
7.3016	4.0198
7.2914	4.0276
7.2811	4.0412
7.2709	4.0635
7.2607	4.0876
7.2506	4.1064
7.2404	4.1265
7.2303	4.1448
7.2203	4.1662
7.2102	4.1831
7.2002	4.1987
7.1902	4.2231
7.1803	4.2427
7.1703	4.2549
7.1604	4.2707
7.1506	4.2849
7.1407	4.2969
7.1309	4.3130
7.1211	4.3323
7.1113	4.3516
7.1016	4.3728
7.0919	4.3916
7.0822	4.4116
7.0725	4.4285
7.0629	4.4465
7.0533	4.4670
7.0437	4.4863
7.0341	4.5063
7.0246	4.5229
7.0151	4.5481
7.0056	4.5759
6.9962	4.5913
6.9867	4.6091
6.9773	4.6252
6.9679	4.6343
6.9586	4.6472
6.9493	4.6599
6.9400	4.6738
6.9307	4.6924
6.9214	4.7046
6.9122	4.7099
6.9030	4.7182
6.8938	4.7305
6.8847	4.7361
6.8755	4.7358
6.8664	4.7346
6.8573	4.7466
6.8483	4.7602
6.8393	4.7720
6.8302	4.7873
6.8213	4.7976
6.8123	4.7952
6.8034	4.8071
6.7944	4.8181
6.7855	4.8274
6.7767	4.8442
6.7678	4.8577
6.7590	4.8652
6.7502	4.8755
6.7414	4.8865
6.7327	4.8879
6.7239	4.8887
6.7152	4.8838
6.7065	4.8808
6.6979	4.8862
6.6892	4.8857
6.6806	4.8791
6.6720	4.8774
6.6634	4.8782
6.6549	4.8713
6.6464	4.8530
6.6378	4.8371
6.6294	4.8464
6.6209	4.8533
6.6124	4.8503
6.6040	4.8545
6.5956	4.8577
6.5872	4.8564
6.5789	4.8601
6.5705	4.8730
6.5622	4.8867
6.5539	4.8931
6.5456	4.9014
6.5374	4.9109
6.5292	4.9194
6.5209	4.9248
6.5128	4.9309
6.5046	4.9321
6.4964	4.9294
6.4883	4.9272
6.4802	4.9370
6.4721	4.9477
6.4640	4.9536
6.4560	4.9534
6.4480	4.9553
6.4399	4.9514
6.4320	4.9441
6.4240	4.9385
6.4160	4.9299
6.4081	4.9326
6.4002	4.9324
6.3923	4.9250
6.3844	4.9167
6.3766	4.9050
6.3687	4.8887
6.3609	4.8728
6.3531	4.8547
6.3454	4.8315
6.3376	4.8215
6.3299	4.8125
6.3221	4.8020
6.3144	4.7893
6.3068	4.7817
6.2991	4.7805
6.2914	4.7781
6.2838	4.7720
6.2762	4.7676
6.2686	4.7661
6.2611	4.7663
6.2535	4.7627
6.2460	4.7541
6.2385	4.7519
6.2310	4.7524
6.2235	4.7480
6.2160	4.7436
6.2086	4.7422
6.2011	4.7373
6.1937	4.7283
6.1863	4.7241
6.1790	4.7380
6.1716	4.7475
6.1643	4.7407
6.1570	4.7385
6.1496	4.7432
6.1424	4.7434
6.1351	4.7363
6.1278	4.7358
6.1206	4.7251
6.1134	4.7075
6.1062	4.6973
6.0990	4.6782
6.0918	4.6562
6.0847	4.6348
6.0776	4.6050
6.0704	4.5705
6.0633	4.5376
6.0563	4.5000
6.0492	4.4582
6.0421	4.4485
6.0351	4.4465
6.0281	4.4375
6.0211	4.4285
6.0141	4.4253
6.0071	4.4402
6.0002	4.4570
5.9932	4.4748
5.9863	4.5027
5.9794	4.5303
5.9725	4.5622
5.9657	4.6016
5.9588	4.6421
5.9520	4.6794
5.9451	4.7046
5.9383	4.7261
5.9315	4.7637
5.9247	4.8035
5.9180	4.8293
5.9112	4.8486
5.9045	4.8711
5.8978	4.8884
5.8911	4.9099
5.8844	4.9253
5.8777	4.9451
5.8711	4.9741
5.8644	4.9946
5.8578	5.0156
5.8512	5.0320
5.8446	5.0452
5.8380	5.0574
5.8314	5.0654
5.8249	5.0647
5.8184	5.0779
5.8118	5.1006
5.8053	5.1123
5.7988	5.1196
5.7923	5.1289
5.7859	5.1365
5.7794	5.1374
5.7730	5.1284
5.7666	5.1162
5.7602	5.1169
5.7538	5.1125
5.7474	5.1011
5.7410	5.0874
5.7347	5.0691
5.7283	5.0532
5.7220	5.0347
5.7157	5.0181
5.7094	4.9961
5.7031	4.9778
5.6969	4.9604
5.6906	4.9321
5.6844	4.9097
5.6782	4.8891
5.6719	4.8716
5.6657	4.8662
5.6596	4.8608
5.6534	4.8589
5.6472	4.8652
5.6411	4.8745
5.6349	4.8918
5.6288	4.9128
5.6227	4.9326
5.6166	4.9631
5.6106	5.0027
5.6045	5.0439
5.5984	5.0818
5.5924	5.1091
5.5864	5.1423
5.5804	5.1836
5.5744	5.2219
5.5684	5.2546
5.5624	5.2798
5.5564	5.3000
5.5505	5.3213
5.5445	5.3384
5.5386	5.3537
5.5327	5.3620
5.5268	5.3618
5.5209	5.3679
5.5151	5.3804
5.5092	5.3826
5.5033	5.3826
5.4975	5.3843
5.4917	5.3811
5.4859	5.3735
5.4801	5.3721
5.4743	5.3872
5.4685	5.3982
5.4628	5.3933
5.4570	5.3972
5.4513	5.4148
5.4455	5.4270
5.4398	5.4419
5.4341	5.4595
5.4284	5.4726
5.4228	5.4875
5.4171	5.5129
5.4114	5.5310
5.4058	5.5473
5.4002	5.5635
5.3945	5.5754
5.3889	5.5967
5.3833	5.6147
5.3778	5.6282
5.3722	5.6438
5.3666	5.6509
5.3611	5.6628
5.3555	5.6772
5.3500	5.6828
5.3445	5.6863
5.3390	5.6904
5.3335	5.6899
5.3280	5.6902
5.3225	5.6951
5.3171	5.6929
5.3116	5.6797
5.3062	5.6753
5.3008	5.6728
5.2954	5.6626
5.2900	5.6455
5.2846	5.6423
5.2792	5.6396
5.2738	5.6301
5.2684	5.6245
5.2631	5.6167
5.2578	5.6138
5.2524	5.6138
5.2471	5.6150
5.2418	5.6130
5.2365	5.6062
5.2312	5.6037
5.2260	5.6064
5.2207	5.6116
5.2154	5.6084
5.2102	5.6023
5.2050	5.6015
5.1998	5.5969
5.1945	5.5889
5.1893	5.5864
5.1842	5.5815
5.1790	5.5803
5.1738	5.5781
5.1686	5.5806
5.1635	5.5915
5.1584	5.6008
5.1532	5.6069
5.1481	5.6213
5.1430	5.6387
5.1379	5.6560
5.1328	5.6753
5.1277	5.6911
5.1227	5.7041
5.1176	5.7192
5.1126	5.7385
5.1075	5.7546
5.1025	5.7671
5.0975	5.7803
5.0925	5.7932
5.0875	5.8052
5.0825	5.8230
5.0775	5.8357
5.0726	5.8472
5.0676	5.8638
5.0627	5.8760
5.0577	5.8882
5.0528	5.9067
5.0479	5.9192
5.0430	5.9297
5.0380	5.9419
5.0332	5.9568
5.0283	5.9643
5.0234	5.9680
5.0185	5.9824
5.0137	5.9917
5.0088	5.9924
5.0040	5.9993
4.9992	6.0085
4.9944	6.0117
4.9896	6.0124
4.9848	6.0127
4.9800	6.0215
4.9752	6.0412
4.9704	6.0535
4.9657	6.0644
4.9609	6.0762
4.9562	6.0896
4.9514	6.1106
4.9467	6.1279
4.9420	6.1506
4.9373	6.1738
4.9326	6.1960
4.9279	6.2126
4.9232	6.2307
4.9186	6.2546
4.9139	6.2803
4.9092	6.2993
4.9046	6.3205
4.9000	6.3440
4.8953	6.3530
4.8907	6.3628
4.8861	6.3789
4.8815	6.3989
4.8769	6.4087
4.8723	6.4221
4.8678	6.4321
4.8632	6.4409
4.8586	6.4568
4.8541	6.4731
4.8495	6.4861
4.8450	6.4917
4.8405	6.5029
4.8360	6.5244
4.8315	6.5434
4.8270	6.5549
4.8225	6.5708
4.8180	6.5796
4.8135	6.5901
4.8090	6.6125
4.8046	6.6347
4.8001	6.6514
4.7957	6.6726
4.7913	6.6926
4.7868	6.7124
4.7824	6.7314
4.7780	6.7422
4.7736	6.7512
4.7692	6.7646
4.7648	6.7829
4.7605	6.8013
4.7561	6.8139
4.7517	6.8266
4.7474	6.8403
4.7431	6.8469
4.7387	6.8503
4.7344	6.8674
4.7301	6.8823
4.7258	6.8916
4.7215	6.8999
4.7172	6.9057
4.7129	6.9150
4.7086	6.9358
4.7043	6.9485
4.7000	6.9548
4.6958	6.9678
4.6915	6.9783
4.6873	6.9861
4.6831	6.9992
4.6788	7.0132
4.6746	7.0281
4.6704	7.0410
4.6662	7.0544
4.6620	7.0754
4.6578	7.0871
4.6536	7.0935
4.6495	7.1120
4.6453	7.1323
4.6411	7.1421
4.6370	7.1538
4.6328	7.1692
4.6287	7.1846
4.6246	7.2021
4.6205	7.2134
4.6163	7.2248
4.6122	7.2395
4.6081	7.2497
4.6040	7.2600
4.6000	7.2685
4.5959	7.2803
4.5918	7.2947
4.5877	7.3083
4.5837	7.3218
4.5796	7.3281
4.5756	7.3371
4.5716	7.3450
4.5675	7.3547
4.5635	7.3625
4.5595	7.3672
4.5555	7.3745
4.5515	7.3850
4.5475	7.3923
4.5435	7.4004
4.5395	7.4104
4.5356	7.4140
4.5316	7.4170
4.5276	7.4275
4.5237	7.4363
4.5197	7.4424
4.5158	7.4504
4.5119	7.4499
4.5080	7.4499
4.5040	7.4621
4.5001	7.4629
4.4962	7.4614
4.4923	7.4692
4.4884	7.4714
4.4846	7.4753
4.4807	7.4751
4.4768	7.4780
4.4730	7.4826
4.4691	7.4936
4.4652	7.5014
4.4614	7.5005
4.4576	7.4992
4.4537	7.5044
4.4499	7.5097
4.4461	7.5122
4.4423	7.5137
4.4385	7.5149
4.4347	7.5171
4.4309	7.5161
4.4271	7.5242
4.4233	7.5339
4.4196	7.5285
4.4158	7.5325
4.4120	7.5444
4.4083	7.5437
4.4045	7.5447
4.4008	7.5449
4.3971	7.5471
4.3934	7.5588
4.3896	7.5574
4.3859	7.5576
4.3822	7.5620
4.3785	7.5652
4.3748	7.5688
4.3711	7.5659
4.3674	7.5644
4.3638	7.5730
4.3601	7.5857
4.3564	7.5864
4.3528	7.5825
4.3491	7.5832
4.3455	7.5879
4.3418	7.5979
4.3382	7.5967
4.3346	7.5908
4.3310	7.5950
4.3273	7.5954
4.3237	7.5915
4.3201	7.5957
4.3165	7.6020
4.3129	7.6059
4.3094	7.6096
4.3058	7.6125
4.3022	7.6174
4.2986	7.6152
4.2951	7.6164
4.2915	7.6172
4.2880	7.6164
4.2844	7.6199
4.2809	7.6247
4.2774	7.6328
4.2738	7.6323
4.2703	7.6345
4.2668	7.6389
4.2633	7.6443
4.2598	7.6482
4.2563	7.6521
4.2528	7.6548
4.2493	7.6601
4.2458	7.6643
4.2424	7.6655
4.2389	7.6667
4.2354	7.6623
4.2320	7.6675
4.2285	7.6748
4.2251	7.6777
4.2216	7.6804
4.2182	7.6828
4.2148	7.6897
4.2113	7.6960
4.2079	7.6982
4.2045	7.6980
4.2011	7.6985
4.1977	7.6987
4.1943	7.7038
4.1909	7.7087
4.1875	7.7075
4.1841	7.7121
4.1808	7.7165
4.1774	7.7146
4.1740	7.7158
4.1707	7.7168
4.1673	7.7170
4.1640	7.7185
4.1606	7.7175
4.1573	7.7197
4.1540	7.7273
4.1506	7.7263
4.1473	7.7265
4.1440	7.7280
4.1407	7.7268
4.1374	7.7290
4.1341	7.7353
4.1308	7.7387
4.1275	7.7380
4.1242	7.7348
4.1209	7.7463
4.1177	7.7524
4.1144	7.7488
4.1111	7.7431
4.1079	7.7451
4.1046	7.7409
4.1014	7.7424
4.0981	7.7571
4.0949	7.7566
4.0917	7.7488
4.0884	7.7512
4.0852	7.7492
4.0820	7.7507
4.0788	7.7497
4.0756	7.7580
4.0724	7.7649
4.0692	7.7624
4.0660	7.7615
4.0628	7.7600
4.0596	7.7573
4.0565	7.7624
4.0533	7.7717
4.0501	7.7722
4.0470	7.7732
4.0438	7.7763
4.0406	7.7771
4.0375	7.7768
4.0344	7.7788
4.0312	7.7820
4.0281	7.7768
4.0250	7.7793
4.0218	7.7793
4.0187	7.7768
4.0156	7.7825
4.0125	7.7829
4.0094	7.7781
4.0063	7.7729
4.0032	7.7744
4.0001	7.7761
3.9970	7.7788
3.9940	7.7839
3.9909	7.7785
3.9878	7.7685
3.9847	7.7751
3.9817	7.7827
3.9786	7.7803
3.9756	7.7781
3.9725	7.7768
3.9695	7.7820
3.9665	7.7837
3.9634	7.7800
3.9604	7.7827
3.9574	7.7822
3.9544	7.7751
3.9513	7.7702
3.9483	7.7702
3.9453	7.7729
3.9423	7.7783
3.9393	7.7737
3.9363	7.7766
3.9333	7.7759
3.9304	7.7746
3.9274	7.7763
3.9244	7.7756
3.9214	7.7685
3.9185	7.7634
3.9155	7.7637
3.9126	7.7641
3.9096	7.7654
3.9067	7.7619
3.9037	7.7595
3.9008	7.7590
3.8979	7.7590
3.8949	7.7568
3.8920	7.7534
3.8891	7.7558
3.8862	7.7615
3.8833	7.7561
3.8804	7.7461
3.8775	7.7449
3.8746	7.7456
3.8717	7.7407
3.8688	7.7361
3.8659	7.7419
3.8630	7.7488
3.8601	7.7397
3.8573	7.7329
3.8544	7.7331
3.8515	7.7300
3.8487	7.7285
3.8458	7.7326
3.8430	7.7261
3.8401	7.7209
3.8373	7.7243
3.8344	7.7246
3.8316	7.7156
3.8288	7.7185
3.8259	7.7197
3.8231	7.7200
3.8203	7.7202
3.8175	7.7146
3.8147	7.7048
3.8119	7.7004
3.8091	7.7014
3.8063	7.6950
3.8035	7.6907
3.8007	7.6946
3.7979	7.6958
3.7951	7.6919
3.7924	7.6872
3.7896	7.6907
3.7868	7.6904
3.7841	7.6836
3.7813	7.6780
3.7785	7.6728
3.7758	7.6701
3.7730	7.6765
3.7703	7.6787
3.7676	7.6699
3.7648	7.6604
3.7621	7.6594
3.7594	7.6616
3.7566	7.6565
3.7539	7.6528
3.7512	7.6479
3.7485	7.6494
3.7458	7.6472
3.7431	7.6489
3.7404	7.6467
3.7377	7.6352
3.7350	7.6296
3.7323	7.6262
3.7296	7.6250
3.7269	7.6233
3.7242	7.6167
3.7216	7.6157
3.7189	7.6133
3.7162	7.6128
3.7136	7.6116
3.7109	7.6020
3.7083	7.5989
3.7056	7.5996
3.7030	7.5984
3.7003	7.5893
3.6977	7.5867
3.6950	7.5862
3.6924	7.5749
3.6898	7.5671
3.6872	7.5669
3.6845	7.5642
3.6819	7.5603
3.6793	7.5574
3.6767	7.5532
3.6741	7.5520
3.6715	7.5513
3.6689	7.5451
3.6663	7.5346
3.6637	7.5359
3.6611	7.5447
3.6585	7.5337
3.6560	7.5207
3.6534	7.5229
3.6508	7.5178
3.6482	7.5117
3.6457	7.5151
3.6431	7.5124
3.6406	7.5097
3.6380	7.5115
3.6355	7.5029
3.6329	7.4917
3.6304	7.4936
3.6278	7.5012
3.6253	7.4934
3.6227	7.4809
3.6202	7.4729
3.6177	7.4702
3.6152	7.4668
3.6127	7.4592
3.6101	7.4521
3.6076	7.4519
3.6051	7.4558
3.6026	7.4502
3.6001	7.4463
3.5976	7.4441
3.5951	7.4367
3.5926	7.4231
3.5901	7.4199
3.5876	7.4175
3.5852	7.4060
3.5827	7.4004
3.5802	7.4001
3.5777	7.3994
3.5753	7.3962
3.5728	7.3928
3.5704	7.3840
3.5679	7.3713
3.5654	7.3642
3.5630	7.3584
3.5605	7.3525
3.5581	7.3415
3.5557	7.3357
3.5532	7.3371
3.5508	7.3364
3.5484	7.3254
3.5459	7.3139
3.5435	7.3061
3.5411	7.2983
3.5387	7.2949
3.5363	7.2846
3.5338	7.2724
3.5314	7.2627
3.5290	7.2573
3.5266	7.2566
3.5242	7.2431
3.5218	7.2283
3.5195	7.2212
3.5171	7.2009
3.5147	7.1753
3.5123	7.1582
3.5099	7.1350
3.5075	7.1230
3.5052	7.1169
3.5028	7.1015
3.5004	7.0925
3.4981	7.0942
3.4957	7.0981
3.4934	7.1030
3.4910	7.1142
3.4887	7.1169
3.4863	7.1089
3.4840	7.1098
3.4816	7.1035
3.4793	7.0996
3.4770	7.1033
3.4746	7.0962
3.4723	7.0881
3.4700	7.0888
3.4677	7.0859
3.4653	7.0722
3.4630	7.0661
3.4607	7.0583
3.4584	7.0539
3.4561	7.0451
3.4538	7.0307
3.4515	7.0161
3.4492	7.0041
3.4469	6.9980
3.4446	6.9856
3.4423	6.9765
3.4400	6.9631
3.4378	6.9446
3.4355	6.9358
3.4332	6.9233
3.4309	6.9018
3.4287	6.8818
3.4264	6.8545
3.4241	6.8279
3.4219	6.8139
3.4196	6.8015
3.4174	6.7917
3.4151	6.7844
3.4129	6.7932
3.4106	6.7976
3.4084	6.7998
3.4061	6.8039
3.4039	6.8171
3.4017	6.8303
3.3994	6.8279
3.3972	6.8296
3.3950	6.8357
3.3928	6.8347
3.3906	6.8296
3.3883	6.8232
3.3861	6.8154
3.3839	6.8118
3.3817	6.8032
3.3795	6.7998
3.3773	6.7947
3.3751	6.7864
3.3729	6.7922
3.3707	6.8032
3.3685	6.8054
3.3663	6.8069
3.3641	6.7993
3.3620	6.7942
3.3598	6.7930
3.3576	6.7839
3.3554	6.7805
3.3533	6.7737
3.3511	6.7678
3.3489	6.7600
3.3468	6.7605
3.3446	6.7641
3.3425	6.7563
3.3403	6.7422
3.3382	6.7409
3.3360	6.7405
3.3339	6.7331
3.3317	6.7209
3.3296	6.7180
3.3274	6.7146
3.3253	6.7099
3.3232	6.7034
3.3210	6.6933
3.3189	6.6868
3.3168	6.6794
3.3147	6.6682
3.3126	6.6665
3.3104	6.6594
3.3083	6.6543
3.3062	6.6487
3.3041	6.6367
3.3020	6.6262
3.2999	6.6235
3.2978	6.6240
3.2957	6.6106
3.2936	6.5920
3.2915	6.5864
3.2894	6.5891
3.2874	6.5825
3.2853	6.5701
3.2832	6.5625
3.2811	6.5505
3.2790	6.5390
3.2770	6.5285
3.2749	6.5242
3.2728	6.5210
3.2708	6.5122
3.2687	6.5097
3.2666	6.4983
3.2646	6.4841
3.2625	6.4817
3.2605	6.4726
3.2584	6.4609
3.2564	6.4529
3.2543	6.4404
3.2523	6.4365
3.2503	6.4355
3.2482	6.4319
3.2462	6.4160
3.2442	6.4089
3.2421	6.4048
3.2401	6.3952
3.2381	6.3847
3.2361	6.3735
3.2340	6.3667
3.2320	6.3584
3.2300	6.3535
3.2280	6.3518
3.2260	6.3406
3.2240	6.3301
3.2220	6.3222
3.2200	6.3166
3.2180	6.3108
3.2160	6.3042
3.2140	6.2944
3.2120	6.2849
3.2100	6.2766
3.2080	6.2698
3.2060	6.2558
3.2040	6.2493
3.2021	6.2405
3.2001	6.2366
3.1981	6.2348
3.1961	6.2224
3.1942	6.2170
3.1922	6.1992
3.1902	6.1872
3.1883	6.1914
3.1863	6.1841
3.1844	6.1738
3.1824	6.1702
3.1805	6.1582
3.1785	6.1438
3.1766	6.1321
3.1746	6.1335
3.1727	6.1282
3.1707	6.1116
3.1688	6.0991
3.1669	6.1042
3.1649	6.1057
3.1630	6.0923
3.1611	6.0867
3.1591	6.0766
3.1572	6.0613
3.1553	6.0522
3.1534	6.0481
3.1515	6.0454
3.1495	6.0351
3.1476	6.0261
3.1457	6.0412
3.1438	6.0285
3.1419	6.0046
3.1400	5.9988
3.1381	5.9883
3.1362	5.9800
3.1343	5.9805
3.1324	5.9797
3.1305	5.9675
3.1286	5.9482
3.1268	5.9475
3.1249	5.9448
3.1230	5.9336
3.1211	5.9233
3.1192	5.9223
3.1174	5.9177
3.1155	5.9138
3.1136	5.9087
3.1117	5.9053
3.1099	5.8965
3.1080	5.8896
3.1061	5.8869
3.1043	5.8804
3.1024	5.8786
3.1006	5.8730
3.0987	5.8633
3.0969	5.8518
3.0950	5.8518
3.0932	5.8555
3.0913	5.8494
3.0895	5.8381
3.0876	5.8293
3.0858	5.8291
3.0840	5.8213
3.0821	5.8210
3.0803	5.8147
3.0785	5.8052
3.0766	5.7993
3.0748	5.7956
3.0730	5.7871
3.0712	5.7756
3.0694	5.7759
3.0675	5.7773
3.0657	5.7781
3.0639	5.7666
3.0621	5.7558
3.0603	5.7649
3.0585	5.7659
3.0567	5.7632
3.0549	5.7541
3.0531	5.7419
3.0513	5.7358
3.0495	5.7344
3.0477	5.7217
3.0459	5.7160
3.0441	5.7124
3.0423	5.7080
3.0406	5.7051
3.0388	5.6997
3.0370	5.6951
3.0352	5.7051
3.0334	5.7143
3.0317	5.7170
3.0299	5.7016
3.0281	5.6870
3.0264	5.6833
3.0246	5.6770
3.0228	5.6763
3.0211	5.6753
3.0193	5.6677
3.0176	5.6660
3.0158	5.6650
3.0140	5.6587
3.0123	5.6406
3.0105	5.6352
3.0088	5.6457
3.0070	5.6416
3.0053	5.6338
3.0036	5.6286
3.0018	5.6240
3.0001	5.6172
2.9984	5.6201
2.9966	5.6216
2.9949	5.6118
2.9932	5.6035
2.9914	5.6020
2.9897	5.5967
2.9880	5.5930
2.9863	5.5915
2.9845	5.5930
2.9828	5.5945
2.9811	5.5847
2.9794	5.5857
2.9777	5.5845
2.9760	5.5786
2.9743	5.5757
2.9726	5.5674
2.9709	5.5718
2.9692	5.5723
2.9675	5.5671
2.9658	5.5664
2.9641	5.5661
2.9624	5.5596
2.9607	5.5513
2.9590	5.5552
2.9573	5.5622
2.9556	5.5530
2.9539	5.5547
2.9523	5.5600
2.9506	5.5596
2.9489	5.5532
2.9472	5.5476
2.9455	5.5530
2.9439	5.5644
2.9422	5.5576
2.9405	5.5625
2.9389	5.5622
2.9372	5.5566
2.9355	5.5520
2.9339	5.5517
2.9322	5.5581
2.9306	5.5508
2.9289	5.5561
2.9272	5.5688
2.9256	5.5693
2.9239	5.5571
2.9223	5.5649
2.9207	5.5771
2.9190	5.5718
2.9174	5.5654
2.9157	5.5683
2.9141	5.5681
2.9124	5.5635
2.9108	5.5813
2.9092	5.6015
2.9075	5.5959
2.9059	5.5884
2.9043	5.5896
2.9027	5.6023
2.9010	5.5991
2.8994	5.5937
2.8978	5.5935
2.8962	5.5989
2.8946	5.6089
2.8929	5.6211
2.8913	5.6289
2.8897	5.6401
2.8881	5.6438
2.8865	5.6323
2.8849	5.6372
2.8833	5.6433
2.8817	5.6450
2.8801	5.6438
2.8785	5.6543
2.8769	5.6643
2.8753	5.6614
2.8737	5.6640
2.8721	5.6763
2.8705	5.6831
2.8689	5.6963
2.8673	5.7014
2.8658	5.7002
2.8642	5.7131
2.8626	5.7195
2.8610	5.7270
2.8594	5.7327
2.8579	5.7268
2.8563	5.7427
2.8547	5.7739
2.8531	5.7790
2.8516	5.7746
2.8500	5.7905
2.8484	5.8000
2.8469	5.7991
2.8453	5.8120
2.8437	5.8337
2.8422	5.8440
2.8406	5.8459
2.8391	5.8559
2.8375	5.8689
2.8360	5.8845
2.8344	5.9053
2.8329	5.9192
2.8313	5.9263
2.8298	5.9536
2.8282	5.9787
2.8267	5.9839
2.8252	5.9856
2.8236	5.9888
2.8221	6.0093
2.8205	6.0283
2.8190	6.0408
2.8175	6.0439
2.8159	6.0454
2.8144	6.0603
2.8129	6.0830
2.8114	6.1003
2.8098	6.1059
2.8083	6.1245
2.8068	6.1482
2.8053	6.1772
2.8038	6.1943
2.8022	6.1926
2.8007	6.2029
2.7992	6.2263
2.7977	6.2529
2.7962	6.2676
2.7947	6.2737
2.7932	6.2881
2.7917	6.3213
2.7902	6.3403
2.7887	6.3418
2.7872	6.3464
2.7857	6.3801
2.7842	6.4101
2.7827	6.4072
2.7812	6.4258
2.7797	6.4563
2.7782	6.4787
2.7767	6.5124
2.7752	6.5315
2.7738	6.5410
2.7723	6.5547
2.7708	6.5652
2.7693	6.5950
2.7678	6.6318
2.7664	6.6575
2.7649	6.6731
2.7634	6.6836
2.7619	6.7104
2.7605	6.7497
2.7590	6.7800
2.7575	6.7900
2.7561	6.7981
2.7546	6.8332
2.7531	6.8647
2.7517	6.8901
2.7502	6.9316
2.7488	6.9604
2.7473	6.9831
2.7458	7.0202
2.7444	7.0312
2.7429	7.0464
2.7415	7.0798
2.7400	7.1177
2.7386	7.1492
2.7371	7.1667
2.7357	7.1867
2.7343	7.2412
2.7328	7.2851
2.7314	7.3008
2.7299	7.3232
2.7285	7.3562
2.7271	7.3708
2.7256	7.3789
2.7242	7.4033
2.7228	7.4324
2.7213	7.4590
2.7199	7.4883
2.7185	7.5222
2.7171	7.5378
2.7156	7.5537
2.7142	7.5886
2.7128	7.6064
2.7114	7.6455
2.7100	7.6775
2.7085	7.6980
2.7071	7.7055
2.7057	7.7346
2.7043	7.7705
2.7029	7.7922
2.7015	7.8069
2.7001	7.8198
2.6987	7.8469
2.6973	7.8618
2.6959	7.8694
2.6945	7.8833
2.6931	7.9062
2.6917	7.9214
2.6903	7.9387
2.6889	7.9624
2.6875	7.9790
2.6861	7.9739
2.6847	7.9619
2.6833	7.9807
2.6819	8.0075
2.6805	8.0124
2.6791	8.0058
2.6778	8.0005
2.6764	7.9983
2.6750	8.0227
2.6736	8.0473
2.6722	8.0517
2.6709	8.0503
2.6695	8.0581
2.6681	8.0725
2.6667	8.0725
2.6654	8.0742
2.6640	8.0762
2.6626	8.0845
2.6613	8.0962
2.6599	8.0896
2.6585	8.0840
2.6572	8.0932
2.6558	8.0967
2.6545	8.1025
2.6531	8.1103
2.6517	8.1159
2.6504	8.1137
2.6490	8.1098
2.6477	8.1052
2.6463	8.0952
2.6450	8.0869
2.6436	8.0940
2.6423	8.0971
2.6409	8.0879
2.6396	8.0783
2.6382	8.0803
2.6369	8.0910
2.6356	8.0930
2.6342	8.0908
2.6329	8.0774
2.6315	8.0791
2.6302	8.0781
2.6289	8.0893
2.6275	8.0803
2.6262	8.0725
2.6249	8.0910
2.6236	8.0964
2.6222	8.0845
2.6209	8.0764
2.6196	8.0832
2.6183	8.0898
2.6169	8.0835
2.6156	8.0698
2.6143	8.0700
2.6130	8.0720
2.6117	8.0718
2.6103	8.0740
2.6090	8.0788
2.6077	8.0644
2.6064	8.0364
2.6051	8.0322
2.6038	8.0537
2.6025	8.0627
2.6012	8.0571
2.5999	8.0669
2.5986	8.0527
2.5973	8.0332
2.5960	8.0276
2.5947	8.0256
2.5934	8.0217
2.5921	8.0312
2.5908	8.0581
2.5895	8.0469
2.5882	8.0268
2.5869	8.0212
2.5856	8.0244
2.5843	8.0276
2.5830	8.0246
2.5817	8.0271
2.5805	8.0334
2.5792	8.0349
2.5779	8.0303
2.5766	8.0073
2.5753	7.9880
2.5741	8.0022
2.5728	8.0122
2.5715	8.0141
2.5702	8.0134
2.5690	8.0166
2.5677	8.0119
2.5664	8.0017
2.5651	7.9878
2.5639	7.9922
2.5626	7.9966
2.5613	8.0063
2.5601	8.0156
2.5588	8.0039
2.5575	7.9953
2.5563	7.9953
2.5550	7.9895
2.5538	7.9707
2.5525	7.9758
2.5513	7.9858
2.5500	7.9866
2.5487	7.9751
2.5475	7.9795
2.5462	7.9812
2.5450	7.9868
2.5437	7.9836
2.5425	7.9861
2.5413	7.9875
2.5400	7.9726
2.5388	7.9624
2.5375	7.9668
2.5363	7.9880
2.5350	7.9914
2.5338	7.9516
2.5326	7.9431
2.5313	7.9695
2.5301	7.9621
2.5289	7.9558
2.5276	7.9448
2.5264	7.9348
2.5252	7.9497
2.5239	7.9460
2.5227	7.9297
2.5215	7.9260
2.5202	7.9360
2.5190	7.9385
2.5178	7.9389
2.5166	7.9260
2.5154	7.9175
2.5141	7.9114
2.5129	7.9101
2.5117	7.9204
2.5105	7.9280
2.5093	7.9294
2.5081	7.9133
2.5068	7.9153
2.5056	7.9109
2.5044	7.9089
2.5032	7.9094
2.5020	7.9096
2.5008	7.9111
2.4996	7.8926
2.4984	7.8838
2.4972	7.8813
2.4960	7.8818
2.4948	7.8911
2.4936	7.8845
2.4924	7.8860
2.4912	7.8811
2.4900	7.8711
2.4888	7.8677
2.4876	7.8559
2.4864	7.8625
2.4852	7.8777
2.4840	7.8669
2.4828	7.8579
2.4816	7.8760
2.4805	7.8696
2.4793	7.8706
2.4781	7.8823
2.4769	7.8616
2.4757	7.8432
2.4745	7.8672
2.4734	7.8708
2.4722	7.8447
2.4710	7.8330
2.4698	7.8386
2.4686	7.8437
2.4675	7.8476
2.4663	7.8122
2.4651	7.7991
2.4640	7.8183
2.4628	7.8257
2.4616	7.8117
2.4604	7.8076
2.4593	7.8279
2.4581	7.8384
2.4569	7.8418
2.4558	7.8354
2.4546	7.8242
2.4535	7.7942
2.4523	7.7876
2.4511	7.7986
2.4500	7.7932
2.4488	7.7898
2.4477	7.7964
2.4465	7.7829
2.4454	7.7851
2.4442	7.7854
2.4431	7.7827
2.4419	7.7739
2.4408	7.7658
2.4396	7.7693
2.4385	7.7737
2.4373	7.7505
2.4362	7.7280
2.4350	7.7463
2.4339	7.7688
2.4327	7.7688
2.4316	7.7446
2.4305	7.7441
2.4293	7.7688
2.4282	7.7549
2.4270	7.7427
2.4259	7.7417
2.4248	7.7300
2.4236	7.7285
2.4225	7.7395
2.4214	7.7353
2.4202	7.7214
2.4191	7.7192
2.4180	7.7270
2.4169	7.7107
2.4157	7.7095
2.4146	7.7117
2.4135	7.7229
2.4124	7.7336
2.4112	7.7280
2.4101	7.6994
2.4090	7.6826
2.4079	7.6887
2.4068	7.7029
2.4056	7.7243
2.4045	7.7041
2.4034	7.6814
2.4023	7.6787
2.4012	7.6887
2.4001	7.7021
2.3990	7.6863
2.3979	7.6853
2.3967	7.6931
2.3956	7.6885
2.3945	7.6709
2.3934	7.6714
2.3923	7.6743
2.3912	7.6938
2.3901	7.6836
2.3890	7.6599
2.3879	7.6553
2.3868	7.6782
2.3857	7.6907
2.3846	7.6787
2.3835	7.6684
2.3824	7.6506
2.3813	7.6282
2.3802	7.6338
2.3791	7.6308
2.3781	7.6250
2.3770	7.6318
2.3759	7.6333
2.3748	7.6477
2.3737	7.6516
2.3726	7.6267
2.3715	7.6235
2.3704	7.6162
2.3694	7.6015
2.3683	7.6074
2.3672	7.6213
2.3661	7.6284
2.3650	7.6167
2.3640	7.5971
2.3629	7.5920
2.3618	7.6138
2.3607	7.6343
2.3597	7.5932
2.3586	7.5947
2.3575	7.6206
2.3564	7.6111
2.3554	7.5813
2.3543	7.5801
2.3532	7.5813
2.3522	7.5849
2.3511	7.5805
2.3500	7.5630
2.3490	7.5693
2.3479	7.5884
2.3468	7.5923
2.3458	7.5805
2.3447	7.6001
2.3436	7.6062
2.3426	7.5991
2.3415	7.5796
2.3405	7.5805
2.3394	7.5825
2.3384	7.5537
2.3373	7.5620
2.3363	7.5715
2.3352	7.5637
2.3342	7.5505
2.3331	7.5461
2.3321	7.5332
2.3310	7.5366
2.3300	7.5439
2.3289	7.5327
2.3279	7.5327
2.3268	7.5361
2.3258	7.5220
2.3247	7.5283
2.3237	7.5434
2.3226	7.5305
2.3216	7.5344
2.3206	7.5395
2.3195	7.5288
2.3185	7.5056
2.3175	7.5112
2.3164	7.5176
2.3154	7.5190
2.3144	7.4975
2.3133	7.5210
2.3123	7.5229
2.3113	7.5107
2.3102	7.5144
2.3092	7.5115
2.3082	7.5237
2.3071	7.5346
2.3061	7.5180
2.3051	7.5254
2.3041	7.5271
2.3030	7.5088
2.3020	7.4848
2.3010	7.4968
2.3000	7.5390
2.2990	7.5163
2.2979	7.4809
2.2969	7.4678
2.2959	7.4775
2.2949	7.4731
2.2939	7.4966
2.2929	7.5005
2.2918	7.4690
2.2908	7.4619
2.2898	7.4800
2.2888	7.4748
2.2878	7.4565
2.2868	7.4638
2.2858	7.4790
2.2848	7.4858
2.2838	7.4778
2.2828	7.4751
2.2818	7.4490
2.2808	7.4580
2.2798	7.4560
2.2787	7.4526
2.2777	7.4355
2.2767	7.4399
2.2757	7.4448
2.2747	7.4450
2.2738	7.4604
2.2728	7.4465
2.2718	7.4199
2.2708	7.4311
2.2698	7.4302
2.2688	7.4199
2.2678	7.4282
2.2668	7.4531
2.2658	7.4424
2.2648	7.4377
2.2638	7.4277
2.2628	7.4267
2.2618	7.4336
2.2609	7.4084
2.2599	7.4197
2.2589	7.4394
2.2579	7.4155
2.2569	7.4009
2.2559	7.3999
2.2550	7.4089
2.2540	7.4092
2.2530	7.3906
2.2520	7.3589
2.2510	7.3877
2.2501	7.4346
2.2491	7.4336
2.2481	7.4121
2.2471	7.3794
2.2462	7.3623
2.2452	7.3554
2.2442	7.3813
2.2433	7.4175
2.2423	7.4297
2.2413	7.3923
2.2403	7.3970
2.2394	7.3896
2.2384	7.3755
2.2374	7.3867
2.2365	7.3857
2.2355	7.3896
2.2345	7.3872
2.2336	7.3745
2.2326	7.3559
2.2317	7.3677
2.2307	7.3501
2.2297	7.3623
2.2288	7.3711
2.2278	7.3808
2.2269	7.3511
2.2259	7.3218
2.2250	7.3247
2.2240	7.3481
2.2231	7.3789
2.2221	7.3721
2.2211	7.3535
2.2202	7.3691
2.2192	7.3574
2.2183	7.3384
2.2173	7.3198
2.2164	7.3159
2.2155	7.3257
2.2145	7.3506
2.2136	7.3388
2.2126	7.3310
2.2117	7.3208
2.2107	7.3203
2.2098	7.3305
2.2088	7.3076
2.2079	7.3054
2.2070	7.3335
2.2060	7.3254
2.2051	7.2964
2.2041	7.2763
2.2032	7.2793
2.2023	7.3022
2.2013	7.3120
2.2004	7.2973
2.1995	7.3032
2.1985	7.3301
2.1976	7.3061
2.1967	7.2856
2.1957	7.2651
2.1948	7.2593
2.1939	7.2798
2.1930	7.3037
2.1920	7.2915
2.1911	7.2915
2.1902	7.2846
2.1893	7.2988
2.1883	7.3056
2.1874	7.2920
2.1865	7.2602
2.1856	7.2549
2.1846	7.2641
2.1837	7.2734
2.1828	7.2856
2.1819	7.2627
2.1810	7.2348
2.1800	7.2495
2.1791	7.2593
2.1782	7.2402
2.1773	7.2407
2.1764	7.2478
2.1755	7.2773
2.1746	7.2529
2.1736	7.2068
2.1727	7.2080
2.1718	7.2495
2.1709	7.2627
2.1700	7.2803
2.1691	7.2485
2.1682	7.2358
2.1673	7.2500
2.1664	7.2541
2.1655	7.2475
2.1646	7.2300
2.1637	7.2239
2.1628	7.2468
2.1619	7.2514
2.1610	7.2292
2.1601	7.2165
2.1592	7.2187
2.1583	7.1933
2.1574	7.1894
2.1565	7.2217
2.1556	7.2436
2.1547	7.2383
2.1538	7.2043
2.1529	7.2114
2.1520	7.1821
2.1511	7.1907
2.1502	7.1860
2.1493	7.1846
2.1484	7.1933
2.1475	7.2192
2.1466	7.2261
2.1458	7.2187
2.1449	7.1880
2.1440	7.1662
2.1431	7.1496
2.1422	7.1799
2.1413	7.2065
2.1404	7.2048
2.1396	7.1675
2.1387	7.1687
2.1378	7.1833
2.1369	7.1758
2.1360	7.1741
2.1352	7.1494
2.1343	7.1318
2.1334	7.1296
2.1325	7.1616
2.1316	7.2070
2.1308	7.2060
2.1299	7.1728
2.1290	7.1472
2.1281	7.1450
2.1273	7.1599
2.1264	7.1594
2.1255	7.1753
2.1247	7.1560
2.1238	7.1352
2.1229	7.1726
2.1220	7.1543
2.1212	7.1277
2.1203	7.1462
2.1194	7.1662
2.1186	7.1592
2.1177	7.1677
2.1168	7.1423
2.1160	7.1177
2.1151	7.1311
2.1143	7.1296
2.1134	7.1279
2.1125	7.1721
2.1117	7.1787
2.1108	7.1194
2.1100	7.0759
2.1091	7.1247
2.1082	7.1289
2.1074	7.1169
2.1065	7.1245
2.1057	7.1135
2.1048	7.1289
2.1040	7.1128
2.1031	7.0937
2.1023	7.1125
2.1014	7.1081
2.1005	7.1076
2.0997	7.1272
2.0988	7.1218
2.0980	7.1040
2.0971	7.1064
2.0963	7.0849
2.0955	7.0752
2.0946	7.1030
2.0938	7.0998
2.0929	7.1101
2.0921	7.1328
2.0912	7.1257
2.0904	7.0986
2.0895	7.0598
2.0887	7.0510
2.0879	7.0617
2.0870	7.0574
2.0862	7.0437
2.0853	7.0515
2.0845	7.0596
2.0837	7.0818
2.0828	7.0718
2.0820	7.0688
2.0812	7.0410
2.0803	7.0454
2.0795	7.0552
