Name: Basalt
Type: Rocks
Class: Igneous
Subclass: Mafic
Particle Size: 0-75 micrometers
Sample No.: Basalt.H1
Owner: JHU
Wavelength range: All
Origin: from Chimney Rock, Somerset County, New Jersey, via Ward's 
Scientific (Cat. No. W-36)
Description: The sample from which the powder was derived is greenish-
black aphanitic rock.




Measurement: Directional (10 degree) hemispherical reflectance
First Column: X
Second Column: Y
X Units: Wavelength (micrometers)
Y Units: Reflectance (percent)
First X Value: 14.0112
Last X Value: 0.4000
Number of X Values: 2844
Additional information: basal1a.txt

14.011	3.2175
13.973	1.5150
13.936	0.0000
13.899	0.0000
13.861	1.3575
13.824	0.3150
13.788	0.0000
13.751	2.8594
13.715	3.9037
13.679	2.8584
13.643	1.4437
13.607	1.3332
13.571	3.0216
13.536	3.5943
13.500	1.5717
13.465	1.3875
13.430	2.6625
13.396	3.2465
13.361	3.1055
13.327	3.2691
13.293	3.0811
13.259	2.2387
13.225	2.1839
13.191	2.3871
13.158	2.4347
13.124	1.9987
13.091	1.6068
13.058	2.1000
13.026	2.7499
12.993	2.9437
12.960	2.8353
12.928	2.5621
12.896	2.6133
12.864	2.6925
12.832	2.4917
12.800	2.5940
12.769	2.8758
12.737	2.8462
12.706	2.8205
12.675	2.5767
12.644	2.2964
12.614	2.7644
12.583	3.1753
12.552	3.2800
12.522	3.0750
12.492	3.0517
12.462	3.3229
12.432	3.3328
12.402	3.3876
12.373	3.7800
12.343	3.9525
12.314	3.9255
12.285	3.9886
12.256	4.2239
12.227	4.4283
12.198	4.3816
12.169	4.2052
12.141	4.2867
12.113	4.3582
12.084	4.3317
12.056	4.2490
12.028	4.1660
12.000	4.0411
11.973	3.9764
11.945	3.9455
11.918	3.8503
11.890	3.7690
11.863	3.6832
11.836	3.5829
11.809	3.5231
11.782	3.4891
11.755	3.4263
11.729	3.4003
11.702	3.4556
11.676	3.4847
11.650	3.4169
11.624	3.3733
11.598	3.4052
11.572	3.4127
11.546	3.3288
11.520	3.3670
11.495	3.4160
11.469	3.2820
11.444	3.2465
11.419	3.1472
11.394	3.2587
11.369	3.3319
11.344	3.3492
11.319	3.2192
11.294	3.0896
11.270	3.0639
11.245	3.0049
11.221	2.9267
11.197	2.9646
11.173	2.9901
11.149	2.9779
11.125	2.8837
11.101	2.6981
11.077	2.6901
11.054	2.7614
11.030	2.7930
11.007	2.7417
10.983	2.6698
10.960	2.6075
10.937	2.6724
10.914	2.6524
10.891	2.6529
10.868	2.6390
10.846	2.6789
10.823	2.6993
10.800	2.7068
10.778	2.7715
10.755	2.7298
10.733	2.6688
10.711	2.6341
10.689	2.5667
10.667	2.5704
10.645	2.5291
10.623	2.5382
10.602	2.6322
10.580	2.5709
10.558	2.5769
10.537	2.5839
10.516	2.5685
10.494	2.5629
10.473	2.5315
10.452	2.4930
10.431	2.4872
10.410	2.5078
10.389	2.4841
10.368	2.3756
10.348	2.3756
10.327	2.3517
10.306	2.3353
10.286	2.2859
10.266	2.2891
10.245	2.4169
10.225	2.4140
10.205	2.2047
10.185	2.2068
10.165	2.3250
10.145	2.3317
10.125	2.2603
10.106	2.2512
10.086	2.3751
10.066	2.4202
10.047	2.3124
10.027	2.2167
10.008	2.2847
9.9887	2.3128
9.9695	2.2589
9.9504	2.2465
9.9313	2.3208
9.9123	2.3843
9.8934	2.3818
9.8746	2.3096
9.8558	2.2732
9.8371	2.2788
9.8185	2.2589
9.7999	2.1673
9.7814	2.1182
9.7630	2.1891
9.7447	2.2207
9.7264	2.2641
9.7082	2.2416
9.6900	2.2301
9.6719	2.2961
9.6539	2.2608
9.6360	2.2090
9.6181	2.3081
9.6003	2.3418
9.5825	2.2634
9.5649	2.2568
9.5472	2.2643
9.5297	2.1774
9.5122	2.2425
9.4948	2.3049
9.4774	2.2772
9.4601	2.2807
9.4429	2.3006
9.4257	2.2919
9.4086	2.3397
9.3916	2.3712
9.3746	2.4136
9.3577	2.4298
9.3408	2.4504
9.3240	2.5156
9.3073	2.5260
9.2906	2.4541
9.2740	2.4239
9.2574	2.4626
9.2409	2.4828
9.2245	2.4607
9.2081	2.4143
9.1918	2.5408
9.1755	2.6363
9.1593	2.5252
9.1431	2.4675
9.1270	2.4623
9.1110	2.4896
9.0950	2.4652
9.0791	2.4680
9.0632	2.5139
9.0474	2.5413
9.0316	2.4893
9.0159	2.4351
9.0003	2.3845
8.9847	2.4225
8.9691	2.3358
8.9536	2.2751
8.9382	2.2955
8.9228	2.2252
8.9075	2.1808
8.8922	2.1886
8.8770	2.1314
8.8618	2.0897
8.8467	1.9769
8.8316	1.8795
8.8166	1.8764
8.8016	1.9395
8.7867	1.8881
8.7718	1.7990
8.7570	1.6668
8.7422	1.6999
8.7275	1.6816
8.7129	1.6458
8.6982	1.6727
8.6837	1.6184
8.6692	1.5560
8.6547	1.5956
8.6403	1.5860
8.6259	1.5476
8.6116	1.5455
8.5973	1.5912
8.5830	1.5717
8.5688	1.5717
8.5547	1.6237
8.5406	1.6551
8.5266	1.5940
8.5126	1.4984
8.4986	1.5750
8.4847	1.6371
8.4708	1.5971
8.4570	1.5626
8.4432	1.5394
8.4295	1.5851
8.4158	1.6643
8.4022	1.6831
8.3886	1.6286
8.3750	1.5684
8.3615	1.5975
8.3481	1.6156
8.3347	1.6369
8.3213	1.6122
8.3079	1.6322
8.2946	1.6397
8.2814	1.5779
8.2682	1.5642
8.2550	1.5623
8.2419	1.5159
8.2288	1.5070
8.2158	1.5753
8.2028	1.5764
8.1898	1.4719
8.1769	1.4571
8.1640	1.5138
8.1512	1.5499
8.1384	1.5898
8.1256	1.5349
8.1129	1.5278
8.1002	1.6106
8.0876	1.6146
8.0750	1.6031
8.0624	1.6605
8.0499	1.7138
8.0374	1.7756
8.0250	1.8164
8.0126	1.8719
8.0002	1.9416
7.9879	1.9924
7.9756	2.0177
7.9634	2.0470
7.9512	2.1314
7.9390	2.2184
7.9268	2.2953
7.9147	2.3742
7.9027	2.4337
7.8906	2.4736
7.8786	2.5556
7.8667	2.6200
7.8548	2.7410
7.8429	2.8319
7.8310	2.8668
7.8192	2.9400
7.8075	3.0480
7.7957	3.1990
7.7840	3.2724
7.7723	3.3197
7.7607	3.4338
7.7491	3.5124
7.7375	3.5794
7.7260	3.7286
7.7145	3.8317
7.7031	3.8956
7.6916	3.9691
7.6802	4.0725
7.6689	4.1196
7.6575	4.0739
7.6462	4.2291
7.6350	4.4039
7.6238	4.5621
7.6126	4.6898
7.6014	4.7140
7.5903	4.7641
7.5792	4.8954
7.5681	5.0512
7.5571	5.1483
7.5461	5.2226
7.5351	5.3023
7.5242	5.3981
7.5133	5.4797
7.5024	5.5671
7.4916	5.6820
7.4807	5.8153
7.4700	5.8837
7.4592	5.9119
7.4485	5.9896
7.4378	6.1324
7.4272	6.2418
7.4165	6.3304
7.4059	6.4064
7.3954	6.4449
7.3848	6.5407
7.3743	6.6740
7.3639	6.7495
7.3534	6.7973
7.3430	6.9117
7.3326	7.0125
7.3223	7.0509
7.3119	7.0987
7.3016	7.1742
7.2914	7.2642
7.2811	7.3352
7.2709	7.4283
7.2607	7.5086
7.2506	7.5677
7.2404	7.6404
7.2303	7.7187
7.2203	7.8211
7.2102	7.8755
7.2002	7.9233
7.1902	8.0439
7.1803	8.1031
7.1703	8.1192
7.1604	8.1773
7.1506	8.2413
7.1407	8.3011
7.1309	8.3901
7.1211	8.4361
7.1113	8.4851
7.1016	8.5317
7.0919	8.5992
7.0822	8.7218
7.0725	8.7940
7.0629	8.7710
7.0533	8.7764
7.0437	8.7782
7.0341	8.8352
7.0246	8.8999
7.0151	9.0265
7.0056	9.0810
6.9962	9.0839
6.9867	9.1598
6.9773	9.2646
6.9679	9.2728
6.9586	9.2548
6.9493	9.3949
6.9400	9.5102
6.9307	9.5381
6.9214	9.5527
6.9122	9.5625
6.9030	9.6509
6.8938	9.7667
6.8847	9.7973
6.8755	9.7776
6.8664	9.7256
6.8573	9.8273
6.8483	10.033
6.8393	10.140
6.8302	10.129
6.8213	10.127
6.8123	10.229
6.8034	10.321
6.7944	10.248
6.7855	10.190
6.7767	10.298
6.7678	10.375
6.7590	10.401
6.7502	10.437
6.7414	10.490
6.7327	10.471
6.7239	10.446
6.7152	10.448
6.7065	10.485
6.6979	10.519
6.6892	10.523
6.6806	10.462
6.6720	10.462
6.6634	10.509
6.6549	10.531
6.6464	10.455
6.6378	10.325
6.6294	10.414
6.6209	10.553
6.6124	10.580
6.6040	10.592
6.5956	10.575
6.5872	10.546
6.5789	10.491
6.5705	10.494
6.5622	10.600
6.5539	10.622
6.5456	10.695
6.5374	10.751
6.5292	10.667
6.5209	10.588
6.5128	10.674
6.5046	10.675
6.4964	10.490
6.4883	10.459
6.4802	10.576
6.4721	10.693
6.4640	10.767
6.4560	10.755
6.4480	10.737
6.4399	10.741
6.4320	10.714
6.4240	10.603
6.4160	10.453
6.4081	10.571
6.4002	10.735
6.3923	10.741
6.3844	10.745
6.3766	10.748
6.3687	10.701
6.3609	10.758
6.3531	10.724
6.3454	10.546
6.3376	10.577
6.3299	10.694
6.3221	10.736
6.3144	10.726
6.3068	10.628
6.2991	10.543
6.2914	10.512
6.2838	10.478
6.2762	10.424
6.2686	10.369
6.2611	10.290
6.2535	10.244
6.2460	10.169
6.2385	10.097
6.2310	9.9719
6.2235	9.7886
6.2160	9.6654
6.2086	9.5753
6.2011	9.4603
6.1937	9.2254
6.1863	8.9519
6.1790	8.9124
6.1716	8.8961
6.1643	8.7951
6.1570	8.6913
6.1496	8.6102
6.1424	8.5556
6.1351	8.5068
6.1278	8.4928
6.1206	8.4525
6.1134	8.4300
6.1062	8.5116
6.0990	8.6028
6.0918	8.7096
6.0847	8.7564
6.0776	8.7569
6.0704	8.7867
6.0633	8.9623
6.0563	9.0564
6.0492	8.9974
6.0421	9.2090
6.0351	9.4884
6.0281	9.6229
6.0211	9.7309
6.0141	9.8285
6.0071	9.9630
6.0002	10.101
5.9932	10.231
5.9863	10.400
5.9794	10.556
5.9725	10.681
5.9657	10.832
5.9588	11.064
5.9520	11.221
5.9451	11.277
5.9383	11.235
5.9315	11.422
5.9247	11.728
5.9180	11.968
5.9112	12.153
5.9045	12.224
5.8978	12.238
5.8911	12.404
5.8844	12.480
5.8777	12.558
5.8711	12.799
5.8644	12.932
5.8578	13.102
5.8512	13.272
5.8446	13.407
5.8380	13.479
5.8314	13.489
5.8249	13.493
5.8184	13.585
5.8118	13.788
5.8053	13.930
5.7988	13.997
5.7923	14.097
5.7859	14.197
5.7794	14.250
5.7730	14.201
5.7666	14.159
5.7602	14.363
5.7538	14.515
5.7474	14.558
5.7410	14.668
5.7347	14.730
5.7283	14.787
5.7220	14.832
5.7157	14.808
5.7094	14.844
5.7031	15.012
5.6969	15.055
5.6906	15.052
5.6844	15.114
5.6782	15.102
5.6719	15.151
5.6657	15.251
5.6596	15.250
5.6534	15.261
5.6472	15.249
5.6411	15.222
5.6349	15.324
5.6288	15.396
5.6227	15.444
5.6166	15.482
5.6106	15.505
5.6045	15.519
5.5984	15.572
5.5924	15.586
5.5864	15.583
5.5804	15.559
5.5744	15.721
5.5684	15.866
5.5624	15.809
5.5564	15.818
5.5505	15.829
5.5445	15.882
5.5386	15.960
5.5327	15.967
5.5268	15.996
5.5209	16.044
5.5151	16.066
5.5092	16.079
5.5033	16.063
5.4975	16.125
5.4917	16.152
5.4859	16.163
5.4801	16.167
5.4743	16.163
5.4685	16.156
5.4628	16.224
5.4570	16.280
5.4513	16.267
5.4455	16.270
5.4398	16.298
5.4341	16.279
5.4284	16.232
5.4228	16.152
5.4171	16.179
5.4114	16.273
5.4058	16.299
5.4002	16.314
5.3945	16.283
5.3889	16.262
5.3833	16.298
5.3778	16.312
5.3722	16.279
5.3666	16.281
5.3611	16.255
5.3555	16.201
5.3500	16.209
5.3445	16.219
5.3390	16.239
5.3335	16.262
5.3280	16.300
5.3225	16.317
5.3171	16.305
5.3116	16.300
5.3062	16.334
5.3008	16.393
5.2954	16.364
5.2900	16.331
5.2846	16.364
5.2792	16.394
5.2738	16.414
5.2684	16.445
5.2631	16.525
5.2578	16.538
5.2524	16.553
5.2471	16.588
5.2418	16.624
5.2365	16.650
5.2312	16.686
5.2260	16.748
5.2207	16.785
5.2154	16.779
5.2102	16.845
5.2050	16.923
5.1998	16.961
5.1945	16.990
5.1893	17.063
5.1842	17.156
5.1790	17.101
5.1738	17.075
5.1686	17.155
5.1635	17.222
5.1584	17.227
5.1532	17.210
5.1481	17.253
5.1430	17.261
5.1379	17.276
5.1328	17.413
5.1277	17.463
5.1227	17.492
5.1176	17.553
5.1126	17.579
5.1075	17.584
5.1025	17.666
5.0975	17.721
5.0925	17.682
5.0875	17.710
5.0825	17.765
5.0775	17.789
5.0726	17.863
5.0676	17.914
5.0627	17.948
5.0577	17.993
5.0528	18.087
5.0479	18.116
5.0430	18.144
5.0380	18.199
5.0332	18.252
5.0283	18.275
5.0234	18.335
5.0185	18.405
5.0137	18.437
5.0088	18.518
5.0040	18.608
4.9992	18.641
4.9944	18.715
4.9896	18.750
4.9848	18.736
4.9800	18.787
4.9752	18.865
4.9704	18.969
4.9657	19.032
4.9609	19.069
4.9562	19.106
4.9514	19.135
4.9467	19.174
4.9420	19.199
4.9373	19.254
4.9326	19.311
4.9279	19.333
4.9232	19.364
4.9186	19.421
4.9139	19.486
4.9092	19.521
4.9046	19.590
4.9000	19.609
4.8953	19.609
4.8907	19.679
4.8861	19.748
4.8815	19.762
4.8769	19.769
4.8723	19.826
4.8678	19.889
4.8632	19.905
4.8586	19.914
4.8541	19.968
4.8495	20.001
4.8450	20.028
4.8405	20.094
4.8360	20.143
4.8315	20.162
4.8270	20.188
4.8225	20.158
4.8180	20.226
4.8135	20.324
4.8090	20.346
4.8046	20.351
4.8001	20.381
4.7957	20.413
4.7913	20.406
4.7868	20.463
4.7824	20.540
4.7780	20.590
4.7736	20.611
4.7692	20.628
4.7648	20.668
4.7605	20.686
4.7561	20.704
4.7517	20.733
4.7474	20.783
4.7431	20.844
4.7387	20.870
4.7344	20.958
4.7301	21.017
4.7258	21.014
4.7215	21.067
4.7172	21.163
4.7129	21.172
4.7086	21.115
4.7043	21.185
4.7000	21.256
4.6958	21.253
4.6915	21.294
4.6873	21.322
4.6831	21.325
4.6788	21.414
4.6746	21.482
4.6704	21.511
4.6662	21.556
4.6620	21.576
4.6578	21.591
4.6536	21.604
4.6495	21.660
4.6453	21.731
4.6411	21.713
4.6370	21.738
4.6328	21.835
4.6287	21.904
4.6246	21.880
4.6205	21.876
4.6163	21.935
4.6122	21.981
4.6081	21.980
4.6040	22.020
4.6000	22.063
4.5959	22.105
4.5918	22.117
4.5877	22.131
4.5837	22.187
4.5796	22.219
4.5756	22.236
4.5716	22.265
4.5675	22.281
4.5635	22.244
4.5595	22.302
4.5555	22.382
4.5515	22.409
4.5475	22.410
4.5435	22.419
4.5395	22.434
4.5356	22.472
4.5316	22.515
4.5276	22.508
4.5237	22.479
4.5197	22.476
4.5158	22.552
4.5119	22.583
4.5080	22.576
4.5040	22.612
4.5001	22.613
4.4962	22.626
4.4923	22.670
4.4884	22.634
4.4846	22.656
4.4807	22.706
4.4768	22.706
4.4730	22.694
4.4691	22.727
4.4652	22.729
4.4614	22.744
4.4576	22.804
4.4537	22.833
4.4499	22.829
4.4461	22.831
4.4423	22.836
4.4385	22.820
4.4347	22.816
4.4309	22.858
4.4271	22.877
4.4233	22.896
4.4196	22.945
4.4158	22.959
4.4120	22.972
4.4083	22.974
4.4045	22.955
4.4008	22.963
4.3971	22.990
4.3934	23.007
4.3896	23.011
4.3859	23.031
4.3822	23.039
4.3785	23.072
4.3748	23.091
4.3711	23.090
4.3674	23.121
4.3638	23.128
4.3601	23.111
4.3564	23.118
4.3528	23.166
4.3491	23.159
4.3455	23.132
4.3418	23.140
4.3382	23.170
4.3346	23.203
4.3310	23.186
4.3273	23.219
4.3237	23.247
4.3201	23.290
4.3165	23.293
4.3129	23.273
4.3094	23.301
4.3058	23.365
4.3022	23.387
4.2986	23.420
4.2951	23.447
4.2915	23.419
4.2880	23.476
4.2844	23.507
4.2809	23.474
4.2774	23.507
4.2738	23.561
4.2703	23.512
4.2668	23.462
4.2633	23.468
4.2598	23.448
4.2563	23.407
4.2528	23.432
4.2493	23.489
4.2458	23.595
4.2424	23.623
4.2389	23.604
4.2354	23.711
4.2320	23.731
4.2285	23.660
4.2251	23.617
4.2216	23.575
4.2182	23.538
4.2148	23.574
4.2113	23.614
4.2079	23.627
4.2045	23.656
4.2011	23.594
4.1977	23.542
4.1943	23.570
4.1909	23.584
4.1875	23.583
4.1841	23.592
4.1808	23.652
4.1774	23.650
4.1740	23.660
4.1707	23.673
4.1673	23.617
4.1640	23.646
4.1606	23.681
4.1573	23.674
4.1540	23.690
4.1506	23.711
4.1473	23.721
4.1440	23.732
4.1407	23.688
4.1374	23.663
4.1341	23.667
4.1308	23.698
4.1275	23.746
4.1242	23.760
4.1209	23.723
4.1177	23.768
4.1144	23.810
4.1111	23.786
4.1079	23.810
4.1046	23.795
4.1014	23.754
4.0981	23.789
4.0949	23.804
4.0917	23.752
4.0884	23.788
4.0852	23.855
4.0820	23.856
4.0788	23.841
4.0756	23.859
4.0724	23.858
4.0692	23.833
4.0660	23.831
4.0628	23.871
4.0596	23.883
4.0565	23.895
4.0533	23.908
4.0501	23.899
4.0470	23.899
4.0438	23.892
4.0406	23.844
4.0375	23.827
4.0344	23.871
4.0312	23.907
4.0281	23.923
4.0250	23.931
4.0218	23.909
4.0187	23.884
4.0156	23.931
4.0125	23.959
4.0094	23.952
4.0063	23.931
4.0032	23.917
4.0001	23.896
3.9970	23.897
3.9940	23.914
3.9909	23.929
3.9878	23.944
3.9847	23.930
3.9817	23.922
3.9786	23.940
3.9756	23.941
3.9725	23.939
3.9695	23.934
3.9665	23.954
3.9634	23.960
3.9604	23.932
3.9574	23.971
3.9544	23.975
3.9513	23.947
3.9483	23.968
3.9453	23.968
3.9423	23.958
3.9393	24.008
3.9363	23.991
3.9333	24.018
3.9304	23.989
3.9274	23.928
3.9244	23.962
3.9214	23.988
3.9185	23.984
3.9155	23.969
3.9126	23.975
3.9096	23.992
3.9067	23.999
3.9037	23.990
3.9008	23.983
3.8979	24.013
3.8949	23.992
3.8920	23.970
3.8891	23.964
3.8862	23.967
3.8833	23.999
3.8804	23.997
3.8775	24.000
3.8746	23.998
3.8717	23.979
3.8688	23.982
3.8659	23.975
3.8630	23.936
3.8601	23.970
3.8573	23.985
3.8544	23.931
3.8515	23.899
3.8487	23.933
3.8458	23.962
3.8430	23.922
3.8401	23.891
3.8373	23.905
3.8344	23.917
3.8316	23.993
3.8288	24.000
3.8259	23.908
3.8231	23.882
3.8203	23.876
3.8175	23.904
3.8147	23.903
3.8119	23.879
3.8091	23.915
3.8063	23.916
3.8035	23.861
3.8007	23.869
3.7979	23.869
3.7951	23.843
3.7924	23.852
3.7896	23.867
3.7868	23.887
3.7841	23.834
3.7813	23.767
3.7785	23.809
3.7758	23.850
3.7730	23.822
3.7703	23.809
3.7676	23.834
3.7648	23.790
3.7621	23.764
3.7594	23.777
3.7566	23.746
3.7539	23.732
3.7512	23.763
3.7485	23.736
3.7458	23.732
3.7431	23.743
3.7404	23.684
3.7377	23.651
3.7350	23.613
3.7323	23.628
3.7296	23.651
3.7269	23.599
3.7242	23.670
3.7216	23.729
3.7189	23.682
3.7162	23.660
3.7136	23.669
3.7109	23.676
3.7083	23.694
3.7056	23.619
3.7030	23.594
3.7003	23.597
3.6977	23.590
3.6950	23.631
3.6924	23.623
3.6898	23.594
3.6872	23.572
3.6845	23.557
3.6819	23.548
3.6793	23.525
3.6767	23.504
3.6741	23.496
3.6715	23.490
3.6689	23.476
3.6663	23.458
3.6637	23.425
3.6611	23.422
3.6585	23.429
3.6560	23.471
3.6534	23.415
3.6508	23.374
3.6482	23.394
3.6457	23.383
3.6431	23.390
3.6406	23.381
3.6380	23.390
3.6355	23.383
3.6329	23.309
3.6304	23.214
3.6278	23.204
3.6253	23.240
3.6227	23.246
3.6202	23.242
3.6177	23.235
3.6152	23.262
3.6127	23.266
3.6101	23.295
3.6076	23.249
3.6051	23.145
3.6026	23.133
3.6001	23.172
3.5976	23.146
3.5951	23.070
3.5926	23.038
3.5901	23.085
3.5876	23.107
3.5852	23.070
3.5827	23.058
3.5802	23.079
3.5777	23.077
3.5753	23.030
3.5728	22.969
3.5704	22.957
3.5679	22.960
3.5654	22.948
3.5630	22.955
3.5605	22.899
3.5581	22.851
3.5557	22.874
3.5532	22.843
3.5508	22.816
3.5484	22.843
3.5459	22.803
3.5435	22.747
3.5411	22.765
3.5387	22.812
3.5363	22.744
3.5338	22.657
3.5314	22.660
3.5290	22.665
3.5266	22.674
3.5242	22.650
3.5218	22.603
3.5195	22.594
3.5171	22.609
3.5147	22.597
3.5123	22.554
3.5099	22.531
3.5075	22.481
3.5052	22.455
3.5028	22.506
3.5004	22.436
3.4981	22.407
3.4957	22.404
3.4934	22.351
3.4910	22.296
3.4887	22.336
3.4863	22.386
3.4840	22.337
3.4816	22.329
3.4793	22.302
3.4770	22.204
3.4746	22.170
3.4723	22.156
3.4700	22.200
3.4677	22.213
3.4653	22.156
3.4630	22.148
3.4607	22.124
3.4584	22.105
3.4561	22.122
3.4538	22.133
3.4515	22.079
3.4492	22.031
3.4469	22.007
3.4446	21.962
3.4423	21.893
3.4400	21.895
3.4378	21.897
3.4355	21.854
3.4332	21.809
3.4309	21.767
3.4287	21.754
3.4264	21.706
3.4241	21.638
3.4219	21.618
3.4196	21.586
3.4174	21.551
3.4151	21.524
3.4129	21.420
3.4106	21.388
3.4084	21.396
3.4061	21.347
3.4039	21.329
3.4017	21.363
3.3994	21.364
3.3972	21.340
3.3950	21.296
3.3928	21.281
3.3906	21.281
3.3883	21.192
3.3861	21.139
3.3839	21.204
3.3817	21.232
3.3795	21.163
3.3773	21.108
3.3751	21.092
3.3729	21.104
3.3707	21.045
3.3685	21.015
3.3663	20.998
3.3641	20.927
3.3620	20.881
3.3598	20.900
3.3576	20.895
3.3554	20.813
3.3533	20.685
3.3511	20.693
3.3489	20.665
3.3468	20.638
3.3446	20.665
3.3425	20.559
3.3403	20.444
3.3382	20.468
3.3360	20.508
3.3339	20.462
3.3317	20.357
3.3296	20.274
3.3274	20.289
3.3253	20.298
3.3232	20.286
3.3210	20.257
3.3189	20.208
3.3168	20.116
3.3147	20.056
3.3126	20.085
3.3104	20.047
3.3083	19.952
3.3062	19.941
3.3041	19.983
3.3020	19.938
3.2999	19.871
3.2978	19.803
3.2957	19.712
3.2936	19.747
3.2915	19.727
3.2894	19.677
3.2874	19.657
3.2853	19.613
3.2832	19.541
3.2811	19.527
3.2790	19.473
3.2770	19.456
3.2749	19.466
3.2728	19.366
3.2708	19.271
3.2687	19.232
3.2666	19.203
3.2646	19.198
3.2625	19.228
3.2605	19.144
3.2584	19.039
3.2564	19.013
3.2543	18.905
3.2523	18.925
3.2503	18.928
3.2482	18.861
3.2462	18.835
3.2442	18.802
3.2421	18.773
3.2401	18.766
3.2381	18.727
3.2361	18.569
3.2340	18.383
3.2320	18.413
3.2300	18.555
3.2280	18.494
3.2260	18.316
3.2240	18.273
3.2220	18.332
3.2200	18.303
3.2180	18.186
3.2160	18.113
3.2140	18.119
3.2120	18.098
3.2100	18.040
3.2080	18.007
3.2060	17.902
3.2040	17.848
3.2021	17.877
3.2001	17.778
3.1981	17.681
3.1961	17.593
3.1942	17.544
3.1922	17.588
3.1902	17.615
3.1883	17.548
3.1863	17.475
3.1844	17.357
3.1824	17.317
3.1805	17.253
3.1785	17.156
3.1766	17.111
3.1746	17.063
3.1727	17.085
3.1707	17.021
3.1688	17.005
3.1669	16.970
3.1649	16.878
3.1630	16.795
3.1611	16.775
3.1591	16.768
3.1572	16.728
3.1553	16.679
3.1534	16.657
3.1515	16.621
3.1495	16.554
3.1476	16.486
3.1457	16.361
3.1438	16.300
3.1419	16.258
3.1400	16.166
3.1381	16.133
3.1362	16.137
3.1343	16.186
3.1324	16.042
3.1305	15.903
3.1286	15.839
3.1268	15.797
3.1249	15.793
3.1230	15.756
3.1211	15.710
3.1192	15.688
3.1174	15.682
3.1155	15.667
3.1136	15.673
3.1117	15.606
3.1099	15.401
3.1080	15.328
3.1061	15.349
3.1043	15.373
3.1024	15.304
3.1006	15.309
3.0987	15.334
3.0969	15.198
3.0950	15.100
3.0932	15.154
3.0913	15.100
3.0895	15.035
3.0876	15.040
3.0858	15.089
3.0840	15.018
3.0821	15.000
3.0803	15.044
3.0785	15.070
3.0766	14.992
3.0748	14.865
3.0730	14.872
3.0712	14.951
3.0694	14.911
3.0675	14.878
3.0657	14.918
3.0639	14.842
3.0621	14.774
3.0603	14.766
3.0585	14.767
3.0567	14.777
3.0549	14.717
3.0531	14.614
3.0513	14.619
3.0495	14.682
3.0477	14.648
3.0459	14.601
3.0441	14.678
3.0423	14.709
3.0406	14.641
3.0388	14.488
3.0370	14.395
3.0352	14.464
3.0334	14.447
3.0317	14.352
3.0299	14.368
3.0281	14.425
3.0264	14.368
3.0246	14.370
3.0228	14.294
3.0211	14.189
3.0193	14.264
3.0176	14.313
3.0158	14.289
3.0140	14.247
3.0123	14.230
3.0105	14.240
3.0088	14.143
3.0070	13.993
3.0053	13.928
3.0036	14.009
3.0018	13.983
3.0001	13.881
2.9984	13.954
2.9966	13.995
2.9949	13.903
2.9932	13.943
2.9914	13.777
2.9897	13.612
2.9880	13.721
2.9863	13.758
2.9845	13.717
2.9828	13.669
2.9811	13.664
2.9794	13.708
2.9777	13.594
2.9760	13.472
2.9743	13.473
2.9726	13.554
2.9709	13.575
2.9692	13.483
2.9675	13.444
2.9658	13.449
2.9641	13.366
2.9624	13.352
2.9607	13.343
2.9590	13.375
2.9573	13.322
2.9556	13.333
2.9539	13.293
2.9523	13.184
2.9506	13.180
2.9489	13.330
2.9472	13.385
2.9455	13.267
2.9439	13.181
2.9422	13.185
2.9405	13.228
2.9389	13.211
2.9372	13.195
2.9355	13.147
2.9339	13.092
2.9322	13.092
2.9306	13.181
2.9289	13.184
2.9272	13.173
2.9256	13.238
2.9239	13.240
2.9223	13.193
2.9207	13.155
2.9190	13.156
2.9174	13.102
2.9157	13.102
2.9141	13.146
2.9124	13.124
2.9108	13.159
2.9092	13.135
2.9075	13.048
2.9059	13.104
2.9043	13.113
2.9027	13.188
2.9010	13.127
2.8994	13.076
2.8978	13.128
2.8962	13.121
2.8946	13.149
2.8929	13.180
2.8913	13.135
2.8897	13.182
2.8881	13.193
2.8865	13.283
2.8849	13.339
2.8833	13.273
2.8817	13.208
2.8801	13.161
2.8785	13.204
2.8769	13.374
2.8753	13.353
2.8737	13.289
2.8721	13.298
2.8705	13.398
2.8689	13.351
2.8673	13.357
2.8658	13.359
2.8642	13.287
2.8626	13.377
2.8610	13.420
2.8594	13.276
2.8579	13.264
2.8563	13.236
2.8547	13.225
2.8531	13.237
2.8516	13.283
2.8500	13.458
2.8484	13.484
2.8469	13.357
2.8453	13.342
2.8437	13.324
2.8422	13.373
2.8406	13.451
2.8391	13.356
2.8375	13.288
2.8360	13.360
2.8344	13.500
2.8329	13.493
2.8313	13.391
2.8298	13.378
2.8282	13.398
2.8267	13.356
2.8252	13.324
2.8236	13.328
2.8221	13.337
2.8205	13.403
2.8190	13.473
2.8175	13.369
2.8159	13.340
2.8144	13.375
2.8129	13.407
2.8114	13.433
2.8098	13.502
2.8083	13.471
2.8068	13.374
2.8053	13.309
2.8038	13.334
2.8022	13.354
2.8007	13.344
2.7992	13.392
2.7977	13.442
2.7962	13.480
2.7947	13.425
2.7932	13.342
2.7917	13.233
2.7902	13.167
2.7887	13.241
2.7872	13.300
2.7857	13.267
2.7842	13.259
2.7827	13.231
2.7812	13.245
2.7797	13.246
2.7782	13.267
2.7767	13.179
2.7752	13.132
2.7738	13.166
2.7723	13.108
2.7708	12.972
2.7693	13.039
2.7678	13.114
2.7664	13.097
2.7649	13.046
2.7634	13.144
2.7619	13.258
2.7605	13.203
2.7590	13.156
2.7575	13.192
2.7561	13.120
2.7546	13.188
2.7531	13.357
2.7517	13.451
2.7502	13.575
2.7488	13.758
2.7473	13.922
2.7458	14.057
2.7444	14.094
2.7429	14.094
2.7415	14.230
2.7400	14.334
2.7386	14.468
2.7371	14.697
2.7357	14.867
2.7343	14.921
2.7328	15.098
2.7314	15.362
2.7299	15.611
2.7285	15.984
2.7271	16.241
2.7256	16.372
2.7242	16.509
2.7228	16.794
2.7213	17.009
2.7199	17.184
2.7185	17.634
2.7171	18.159
2.7156	18.821
2.7142	19.346
2.7128	19.617
2.7114	19.895
2.7100	20.148
2.7085	20.416
2.7071	20.768
2.7057	21.200
2.7043	21.488
2.7029	21.596
2.7015	21.715
2.7001	21.880
2.6987	22.014
2.6973	22.107
2.6959	22.219
2.6945	22.257
2.6931	22.282
2.6917	22.502
2.6903	22.672
2.6889	22.763
2.6875	22.865
2.6861	22.828
2.6847	22.777
2.6833	22.892
2.6819	22.969
2.6805	23.106
2.6791	23.020
2.6778	23.023
2.6764	23.091
2.6750	23.196
2.6736	23.333
2.6722	23.256
2.6709	22.995
2.6695	23.077
2.6681	23.288
2.6667	23.080
2.6654	23.025
2.6640	23.155
2.6626	23.475
2.6613	23.603
2.6599	23.556
2.6585	23.569
2.6572	23.549
2.6558	23.473
2.6545	23.577
2.6531	23.601
2.6517	23.470
2.6504	23.598
2.6490	23.709
2.6477	23.705
2.6463	23.658
2.6450	23.653
2.6436	23.771
2.6423	23.723
2.6409	23.725
2.6396	23.854
2.6382	23.777
2.6369	23.666
2.6356	23.764
2.6342	23.784
2.6329	23.625
2.6315	23.541
2.6302	23.405
2.6289	23.559
2.6275	23.652
2.6262	23.478
2.6249	23.531
2.6236	23.631
2.6222	23.620
2.6209	23.416
2.6196	23.349
2.6183	23.518
2.6169	23.329
2.6156	23.399
2.6143	23.533
2.6130	23.516
2.6117	23.582
2.6103	23.619
2.6090	23.529
2.6077	23.507
2.6064	23.362
2.6051	23.271
2.6038	23.409
2.6025	23.559
2.6012	23.566
2.5999	23.541
2.5986	23.475
2.5973	23.472
2.5960	23.317
2.5947	23.036
2.5934	23.114
2.5921	23.407
2.5908	23.488
2.5895	23.460
2.5882	23.364
2.5869	23.288
2.5856	23.380
2.5843	23.429
2.5830	23.342
2.5817	23.412
2.5805	23.457
2.5792	23.535
2.5779	23.393
2.5766	23.339
2.5753	23.393
2.5741	23.335
2.5728	23.259
2.5715	23.433
2.5702	23.389
2.5690	23.251
2.5677	23.363
2.5664	23.478
2.5651	23.436
2.5639	23.358
2.5626	23.306
2.5613	23.201
2.5601	23.216
2.5588	23.361
2.5575	23.417
2.5563	23.499
2.5550	23.439
2.5538	23.357
2.5525	23.365
2.5513	23.394
2.5500	23.409
2.5487	23.301
2.5475	23.158
2.5462	23.322
2.5450	23.302
2.5437	23.220
2.5425	23.250
2.5413	23.345
2.5400	23.380
2.5388	23.364
2.5375	23.414
2.5363	23.335
2.5350	23.210
2.5338	23.197
2.5326	23.134
2.5313	23.096
2.5301	23.137
2.5289	23.200
2.5276	23.321
2.5264	23.395
2.5252	23.289
2.5239	23.193
2.5227	23.196
2.5215	23.261
2.5202	23.279
2.5190	23.214
2.5178	23.112
2.5166	23.104
2.5154	23.152
2.5141	23.142
2.5129	23.100
2.5117	23.157
2.5105	23.256
2.5093	23.299
2.5081	23.261
2.5068	23.293
2.5056	23.295
2.5044	23.320
2.5032	23.264
2.5020	23.159
2.5008	23.048
2.4996	23.035
2.4984	23.007
2.4972	23.029
2.4960	23.140
2.4948	23.190
2.4936	23.159
2.4924	23.149
2.4912	23.118
2.4900	23.060
2.4888	23.054
2.4876	23.123
2.4864	23.093
2.4852	22.979
2.4840	23.023
2.4828	23.115
2.4816	23.039
2.4805	23.039
2.4793	23.127
2.4781	23.140
2.4769	23.163
2.4757	23.092
2.4745	23.014
2.4734	23.013
2.4722	22.911
2.4710	22.912
2.4698	23.006
2.4686	22.979
2.4675	22.902
2.4663	22.994
2.4651	23.029
2.4640	23.043
2.4628	22.901
2.4616	22.743
2.4604	22.869
2.4593	23.003
2.4581	22.757
2.4569	22.688
2.4558	22.891
2.4546	22.960
2.4535	22.922
2.4523	22.898
2.4511	22.918
2.4500	22.878
2.4488	22.781
2.4477	22.856
2.4465	22.986
2.4454	22.901
2.4442	22.734
2.4431	22.745
2.4419	22.746
2.4408	22.822
2.4396	22.845
2.4385	22.912
2.4373	22.845
2.4362	22.771
2.4350	22.811
2.4339	22.834
2.4327	22.721
2.4316	22.511
2.4305	22.523
2.4293	22.750
2.4282	22.941
2.4270	22.900
2.4259	22.757
2.4248	22.711
2.4236	22.630
2.4225	22.652
2.4214	22.687
2.4202	22.702
2.4191	22.726
2.4180	22.798
2.4169	22.733
2.4157	22.621
2.4146	22.652
2.4135	22.588
2.4124	22.590
2.4112	22.736
2.4101	22.691
2.4090	22.624
2.4079	22.702
2.4068	22.692
2.4056	22.546
2.4045	22.606
2.4034	22.619
2.4023	22.656
2.4012	22.643
2.4001	22.537
2.3990	22.449
2.3979	22.480
2.3967	22.523
2.3956	22.575
2.3945	22.578
2.3934	22.511
2.3923	22.501
2.3912	22.565
2.3901	22.557
2.3890	22.501
2.3879	22.578
2.3868	22.696
2.3857	22.602
2.3846	22.538
2.3835	22.591
2.3824	22.681
2.3813	22.822
2.3802	22.614
2.3791	22.418
2.3781	22.407
2.3770	22.487
2.3759	22.508
2.3748	22.528
2.3737	22.563
2.3726	22.512
2.3715	22.393
2.3704	22.366
2.3694	22.472
2.3683	22.468
2.3672	22.498
2.3661	22.556
2.3650	22.469
2.3640	22.366
2.3629	22.463
2.3618	22.400
2.3607	22.372
2.3597	22.347
2.3586	22.361
2.3575	22.531
2.3564	22.576
2.3554	22.480
2.3543	22.563
2.3532	22.563
2.3522	22.555
2.3511	22.578
2.3500	22.496
2.3490	22.427
2.3479	22.452
2.3468	22.455
2.3458	22.340
2.3447	22.369
2.3436	22.345
2.3426	22.197
2.3415	22.181
2.3405	22.273
2.3394	22.399
2.3384	22.419
2.3373	22.532
2.3363	22.480
2.3352	22.240
2.3342	22.181
2.3331	22.374
2.3321	22.381
2.3310	22.369
2.3300	22.403
2.3289	22.416
2.3279	22.495
2.3268	22.413
2.3258	22.192
2.3247	22.162
2.3237	22.233
2.3226	22.312
2.3216	22.296
2.3206	22.342
2.3195	22.398
2.3185	22.435
2.3175	22.387
2.3164	22.313
2.3154	22.321
2.3144	22.209
2.3133	22.207
2.3123	22.182
2.3113	22.253
2.3102	22.416
2.3092	22.454
2.3082	22.462
2.3071	22.329
2.3061	22.170
2.3051	22.136
2.3041	22.254
2.3030	22.439
2.3020	22.346
2.3010	22.137
2.3000	22.287
2.2990	22.362
2.2979	22.392
2.2969	22.401
2.2959	22.323
2.2949	22.267
2.2939	22.304
2.2929	22.338
2.2918	22.343
2.2908	22.374
2.2898	22.422
2.2888	22.317
2.2878	22.314
2.2868	22.441
2.2858	22.438
2.2848	22.367
2.2838	22.372
2.2828	22.424
2.2818	22.479
2.2808	22.452
2.2798	22.424
2.2787	22.368
2.2777	22.539
2.2767	22.599
2.2757	22.389
2.2747	22.310
2.2738	22.337
2.2728	22.302
2.2718	22.380
2.2708	22.356
2.2698	22.330
2.2688	22.384
2.2678	22.372
2.2668	22.320
2.2658	22.402
2.2648	22.324
2.2638	22.257
2.2628	22.312
2.2618	22.271
2.2609	22.304
2.2599	22.288
2.2589	22.274
2.2579	22.276
2.2569	22.307
2.2559	22.466
2.2550	22.445
2.2540	22.298
2.2530	22.190
2.2520	22.241
2.2510	22.382
2.2501	22.326
2.2491	22.200
2.2481	22.210
2.2471	22.354
2.2462	22.432
2.2452	22.429
2.2442	22.272
2.2433	22.267
2.2423	22.334
2.2413	22.396
2.2403	22.346
2.2394	22.347
2.2384	22.491
2.2374	22.544
2.2365	22.469
2.2355	22.439
2.2345	22.378
2.2336	22.327
2.2326	22.276
2.2317	22.370
2.2307	22.406
2.2297	22.357
2.2288	22.393
2.2278	22.372
2.2269	22.462
2.2259	22.528
2.2250	22.537
2.2240	22.378
2.2231	22.259
2.2221	22.435
2.2211	22.496
2.2202	22.344
2.2192	22.253
2.2183	22.263
2.2173	22.390
2.2164	22.364
2.2155	22.221
2.2145	22.204
2.2136	22.337
2.2126	22.380
2.2117	22.359
2.2107	22.323
2.2098	22.356
2.2088	22.333
2.2079	22.219
2.2070	22.249
2.2060	22.283
2.2051	22.293
2.2041	22.338
2.2032	22.440
2.2023	22.400
2.2013	22.345
2.2004	22.439
2.1995	22.536
2.1985	22.550
2.1976	22.422
2.1967	22.363
2.1957	22.433
2.1948	22.575
2.1939	22.506
2.1930	22.527
2.1920	22.522
2.1911	22.376
2.1902	22.450
2.1893	22.531
2.1883	22.488
2.1874	22.324
2.1865	22.299
2.1856	22.396
2.1846	22.393
2.1837	22.383
2.1828	22.409
2.1819	22.357
2.1810	22.448
2.1800	22.462
2.1791	22.417
2.1782	22.506
2.1773	22.520
2.1764	22.490
2.1755	22.602
2.1746	22.573
2.1736	22.538
2.1727	22.454
2.1718	22.432
2.1709	22.560
2.1700	22.605
2.1691	22.482
2.1682	22.483
2.1673	22.551
2.1664	22.569
2.1655	22.406
2.1646	22.482
2.1637	22.552
2.1628	22.327
2.1619	22.495
2.1610	22.554
2.1601	22.647
2.1592	22.655
2.1583	22.569
2.1574	22.520
2.1565	22.620
2.1556	22.547
2.1547	22.400
2.1538	22.544
2.1529	22.529
2.1520	22.405
2.1511	22.476
2.1502	22.585
2.1493	22.710
2.1484	22.674
2.1475	22.642
2.1466	22.595
2.1458	22.697
2.1449	22.735
2.1440	22.662
2.1431	22.752
2.1422	22.664
2.1413	22.454
2.1404	22.520
2.1396	22.572
2.1387	22.740
2.1378	22.949
2.1369	22.838
2.1360	22.602
2.1352	22.559
2.1343	22.642
2.1334	22.678
2.1325	22.502
2.1316	22.435
2.1308	22.612
2.1299	22.688
2.1290	22.614
2.1281	22.610
2.1273	22.672
2.1264	22.644
2.1255	22.612
2.1247	22.685
2.1238	22.795
2.1229	22.752
2.1220	22.565
2.1212	22.537
2.1203	22.515
2.1194	22.488
2.1186	22.622
2.1177	22.798
2.1168	22.765
2.1160	22.767
2.1151	22.726
2.1143	22.709
2.1134	22.650
2.1125	22.756
2.1117	22.859
2.1108	22.736
2.1100	22.680
2.1091	22.719
2.1082	22.687
2.1074	22.621
2.1065	22.685
2.1057	22.780
2.1048	22.765
2.1040	22.804
2.1031	22.589
2.1023	22.566
2.1014	22.781
2.1005	22.805
2.0997	22.593
2.0988	22.531
2.0980	22.606
2.0971	22.607
2.0963	22.683
2.0955	22.607
2.0946	22.592
2.0938	22.713
2.0929	22.783
2.0921	22.833
2.0912	22.825
2.0904	22.815
2.0895	22.877
2.0887	22.809
2.0879	22.699
2.0870	22.696
2.0862	22.796
2.0853	22.819
2.0845	22.864
2.0837	22.830
2.0828	22.650
2.0820	22.803
2.0812	22.893
2.0803	22.760
2.0795	22.716
2.0760	22.716
2.0720	22.863
2.0680	22.827
2.0640	22.734
2.0600	22.642
2.0560	22.546
2.0520	22.475
2.0480	22.368
2.0440	22.517
2.0400	22.535
2.0360	22.556
2.0320	22.520
2.0280	22.556
2.0240	22.612
2.0200	22.597
2.0160	22.870
2.0120	22.427
2.0080	22.597
2.0040	22.436
2.0000	22.562
1.9960	22.562
1.9920	22.471
1.9880	22.345
1.9840	22.315
1.9800	22.297
1.9760	22.431
1.9720	22.311
1.9680	22.366
1.9640	22.349
1.9600	22.349
1.9560	22.401
1.9520	22.471
1.9480	22.523
1.9440	22.520
1.9400	22.535
1.9360	22.453
1.9320	22.202
1.9280	22.272
1.9240	22.202
1.9200	22.167
1.9160	22.432
1.9120	22.432
1.9080	22.379
1.9040	22.482
1.9000	22.562
1.8960	22.623
1.8920	22.522
1.8880	22.683
1.8840	22.569
1.8800	22.683
1.8760	23.073
1.8720	23.035
1.8680	22.925
1.8640	22.899
1.8600	22.801
1.8560	22.680
1.8520	22.861
1.8480	23.039
1.8440	23.155
1.8400	23.387
1.8360	23.387
1.8320	23.298
1.8280	23.316
1.8240	23.422
1.8200	23.280
1.8160	23.316
1.8120	23.252
1.8080	23.175
1.8040	23.298
1.8000	23.298
1.7960	23.429
1.7920	23.174
1.7880	23.210
1.7840	23.404
1.7800	23.140
1.7760	23.210
1.7720	23.316
1.7680	23.316
1.7640	23.387
1.7600	23.493
1.7560	23.387
1.7520	23.316
1.7480	23.422
1.7440	23.457
1.7400	23.671
1.7360	23.832
1.7320	23.850
1.7280	23.850
1.7240	23.850
1.7200	23.850
1.7160	23.725
1.7120	23.759
1.7080	23.627
1.7040	23.669
1.7000	23.739
1.6960	23.651
1.6920	23.721
1.6880	23.757
1.6840	23.633
1.6800	23.615
1.6760	23.651
1.6720	23.669
1.6680	23.757
1.6640	23.739
1.6600	23.721
1.6560	23.626
1.6520	23.715
1.6480	23.715
1.6440	23.733
1.6400	23.679
1.6360	23.668
1.6320	23.661
1.6280	23.715
1.6240	23.793
1.6200	23.715
1.6160	23.591
1.6120	23.644
1.6080	23.768
1.6040	23.912
1.6000	23.912
1.5960	23.858
1.5920	23.840
1.5880	23.750
1.5840	23.678
1.5800	23.555
1.5760	23.732
1.5720	23.766
1.5680	23.766
1.5640	23.664
1.5600	23.802
1.5560	23.643
1.5520	23.611
1.5480	23.859
1.5440	23.682
1.5400	23.576
1.5360	23.523
1.5320	23.523
1.5280	23.594
1.5240	23.594
1.5200	23.576
1.5160	23.559
1.5120	23.594
1.5080	23.594
1.5040	23.576
1.5000	23.541
1.4960	23.242
1.4920	23.401
1.4880	23.366
1.4840	23.383
1.4800	23.324
1.4760	23.401
1.4720	23.401
1.4680	23.306
1.4640	23.289
1.4600	23.342
1.4560	23.394
1.4520	23.499
1.4480	23.516
1.4440	23.498
1.4400	23.462
1.4360	23.515
1.4320	23.515
1.4280	23.383
1.4240	23.366
1.4200	23.437
1.4160	23.383
1.4120	23.435
1.4080	23.291
1.4040	23.115
1.4000	23.219
1.3960	23.256
1.3920	23.382
1.3880	23.435
1.3840	23.291
1.3800	23.361
1.3760	23.309
1.3720	23.260
1.3680	23.272
1.3640	23.268
1.3600	23.194
1.3560	23.372
1.3520	23.378
1.3480	23.276
1.3440	23.400
1.3400	23.239
1.3360	23.290
1.3320	23.256
1.3280	23.065
1.3240	23.099
1.3200	23.200
1.3160	23.268
1.3120	23.043
1.3080	23.093
1.3040	23.110
1.3000	23.127
1.2960	23.144
1.2920	23.106
1.2880	23.068
1.2840	23.064
1.2800	22.954
1.2760	22.792
1.2720	22.966
1.2680	22.971
1.2640	22.852
1.2600	22.836
1.2560	23.030
1.2520	22.985
1.2480	23.052
1.2440	23.086
1.2400	23.155
1.2360	23.074
1.2320	22.956
1.2280	22.840
1.2240	23.069
1.2200	23.040
1.2160	23.091
1.2120	22.727
1.2080	22.645
1.2040	22.789
1.2000	22.861
1.1960	22.811
1.1920	22.717
1.1880	22.684
1.1840	22.740
1.1800	22.569
1.1760	22.707
1.1720	22.723
1.1680	22.481
1.1640	22.529
1.1600	22.473
1.1560	22.272
1.1520	22.215
1.1480	22.215
1.1440	22.063
1.1400	22.263
1.1360	22.359
1.1320	22.174
1.1280	22.190
1.1240	21.886
1.1200	21.828
1.1160	21.781
1.1120	21.677
1.1080	21.614
1.1040	21.452
1.1000	21.304
1.0960	21.171
1.0920	21.097
1.0880	20.801
1.0840	20.742
1.0800	20.486
1.0760	20.383
1.0720	20.177
1.0680	20.028
1.0640	19.843
1.0600	19.871
1.0560	19.694
1.0520	19.646
1.0480	19.544
1.0440	19.429
1.0400	19.275
1.0360	19.151
1.0320	19.115
1.0280	19.065
1.0240	19.118
1.0200	18.938
1.0160	18.774
1.0120	18.748
1.0080	18.761
1.0040	18.764
1.0000	18.611
0.9960	18.611
0.9920	18.572
0.9880	18.622
0.9840	18.584
0.9800	18.596
0.9760	18.751
0.9720	18.700
0.9680	18.738
0.9640	18.839
0.9600	18.977
0.9560	19.118
0.9520	19.105
0.9480	19.193
0.9440	19.105
0.9400	19.320
0.9360	19.524
0.9320	19.572
0.9280	19.606
0.9240	19.633
0.9200	19.985
0.9160	19.985
0.9120	20.161
0.9080	20.398
0.9040	20.440
0.9000	20.591
0.8960	20.723
0.8920	20.899
0.8880	20.944
0.8840	20.929
0.8800	21.351
0.8760	21.439
0.8720	21.455
0.8680	21.543
0.8640	21.751
0.8600	21.845
0.8560	21.919
0.8520	22.008
0.8480	22.113
0.8440	22.081
0.8400	22.122
0.8360	22.332
0.8320	22.356
0.8280	22.461
0.8240	22.517
0.8200	22.678
0.8160	22.701
0.8120	22.811
0.8080	22.778
0.8040	22.976
0.8000	22.877
0.7990	22.749
0.7980	22.749
0.7970	22.296
0.7960	22.275
0.7950	22.462
0.7940	22.558
0.7930	22.787
0.7920	22.600
0.7910	22.542
0.7900	22.504
0.7890	22.366
0.7880	22.404
0.7870	22.313
0.7860	22.519
0.7850	22.649
0.7840	22.420
0.7830	22.515
0.7820	22.423
0.7810	22.669
0.7800	22.669
0.7790	22.439
0.7780	22.404
0.7770	22.381
0.7760	22.385
0.7750	22.309
0.7740	22.458
0.7730	22.286
0.7720	22.473
0.7710	22.549
0.7700	22.531
0.7690	22.666
0.7680	22.493
0.7670	22.435
0.7660	22.281
0.7650	22.205
0.7640	22.408
0.7630	22.089
0.7620	22.243
0.7610	22.224
0.7600	22.224
0.7590	22.243
0.7580	22.485
0.7570	22.319
0.7560	22.243
0.7550	22.415
0.7540	22.017
0.7530	22.185
0.7520	22.031
0.7510	22.089
0.7500	22.111
0.7490	22.331
0.7480	22.109
0.7470	21.995
0.7460	22.032
0.7450	22.108
0.7440	22.127
0.7430	22.216
0.7420	21.955
0.7410	21.908
0.7400	21.760
0.7390	21.812
0.7380	21.649
0.7370	21.760
0.7360	21.984
0.7350	21.838
0.7340	21.742
0.7330	21.726
0.7320	21.630
0.7310	21.832
0.7300	21.793
0.7290	21.608
0.7280	21.831
0.7270	21.981
0.7260	21.888
0.7250	21.568
0.7240	21.735
0.7230	21.791
0.7220	21.753
0.7210	21.657
0.7200	21.601
0.7190	21.641
0.7180	21.752
0.7170	21.434
0.7160	21.545
0.7150	21.620
0.7140	21.434
0.7130	21.568
0.7120	21.697
0.7110	21.695
0.7100	21.545
0.7090	21.260
0.7080	21.050
0.7070	21.346
0.7060	21.157
0.7050	21.308
0.7040	21.271
0.7030	21.267
0.7020	21.477
0.7010	21.552
0.7000	21.629
0.6990	21.420
0.6980	21.363
0.6970	21.348
0.6960	21.390
0.6950	21.481
0.6940	21.481
0.6930	21.481
0.6920	21.462
0.6910	21.305
0.6900	21.404
0.6890	21.404
0.6880	21.381
0.6870	21.306
0.6860	21.461
0.6850	21.263
0.6840	21.089
0.6830	21.188
0.6820	21.463
0.6810	21.207
0.6800	21.364
0.6790	21.228
0.6780	21.228
0.6770	21.206
0.6760	21.244
0.6750	21.064
0.6740	21.439
0.6730	21.539
0.6720	21.461
0.6710	21.263
0.6700	21.343
0.6690	21.342
0.6680	21.008
0.6670	20.946
0.6660	21.007
0.6650	20.969
0.6640	20.903
0.6630	21.040
0.6620	21.002
0.6610	21.002
0.6600	20.903
0.6590	20.766
0.6580	20.865
0.6570	20.766
0.6560	20.711
0.6550	20.865
0.6540	20.865
0.6530	20.711
0.6520	20.542
0.6510	20.897
0.6500	20.959
0.6490	20.803
0.6480	20.567
0.6470	20.666
0.6460	20.585
0.6450	20.586
0.6440	20.685
0.6430	20.567
0.6420	20.413
0.6410	20.405
0.6400	20.405
0.6390	20.560
0.6380	20.741
0.6370	20.567
0.6360	20.604
0.6350	20.585
0.6340	20.467
0.6330	20.368
0.6320	20.386
0.6310	20.449
0.6300	20.386
0.6290	20.260
0.6280	20.405
0.6270	20.360
0.6260	20.197
0.6250	20.397
0.6240	20.360
0.6230	20.179
0.6220	20.197
0.6210	20.378
0.6200	20.378
0.6190	20.297
0.6180	20.252
0.6170	20.215
0.6160	20.397
0.6150	20.360
0.6140	20.378
0.6130	20.043
0.6120	19.943
0.6110	19.979
0.6100	19.997
0.6090	20.069
0.6080	20.015
0.6070	20.097
0.6060	20.115
0.6050	20.115
0.6040	20.151
0.6030	20.069
0.6020	19.969
0.6010	19.969
0.6000	19.858
0.5990	19.876
0.5980	20.114
0.5970	19.948
0.5960	20.151
0.5950	20.188
0.5940	20.003
0.5930	19.883
0.5920	20.040
0.5910	20.040
0.5900	19.734
0.5890	19.854
0.5880	19.734
0.5870	19.938
0.5860	19.696
0.5850	19.643
0.5840	19.938
0.5830	19.873
0.5820	19.883
0.5810	19.746
0.5800	19.573
0.5790	19.692
0.5780	19.674
0.5770	19.692
0.5760	19.847
0.5750	19.847
0.5740	19.793
0.5730	19.750
0.5720	19.961
0.5710	19.562
0.5700	19.544
0.5690	19.544
0.5680	19.591
0.5670	19.697
0.5660	19.768
0.5650	19.667
0.5640	19.614
0.5630	19.768
0.5620	19.786
0.5610	19.603
0.5600	19.674
0.5590	19.608
0.5580	19.608
0.5570	19.685
0.5560	19.636
0.5550	19.636
0.5540	19.544
0.5530	19.387
0.5520	19.495
0.5510	19.527
0.5500	19.717
0.5490	19.493
0.5480	19.590
0.5470	19.491
0.5460	19.507
0.5450	19.491
0.5440	19.555
0.5430	19.555
0.5420	19.460
0.5410	19.604
0.5400	19.346
0.5390	19.394
0.5380	19.539
0.5370	19.344
0.5360	19.360
0.5350	19.244
0.5340	19.164
0.5330	19.360
0.5320	19.020
0.5310	19.067
0.5300	19.083
0.5290	19.393
0.5280	19.083
0.5270	18.907
0.5260	18.907
0.5250	18.886
0.5240	19.050
0.5230	18.972
0.5220	18.927
0.5210	18.830
0.5200	18.828
0.5190	18.889
0.5180	18.792
0.5170	18.696
0.5160	18.629
0.5150	18.463
0.5140	18.583
0.5130	18.613
0.5120	18.433
0.5110	18.416
0.5100	18.373
0.5090	18.403
0.5080	18.099
0.5070	18.143
0.5060	18.088
0.5050	18.222
0.5040	18.216
0.5030	18.201
0.5020	18.114
0.5010	17.977
0.5000	18.088
0.4990	18.088
0.4980	17.932
0.4970	17.947
0.4960	17.918
0.4950	17.822
0.4940	17.641
0.4930	17.764
0.4920	17.806
0.4910	17.806
0.4900	17.753
0.4890	17.447
0.4880	17.851
0.4870	17.837
0.4860	17.699
0.4850	17.643
0.4840	17.447
0.4830	17.699
0.4820	17.433
0.4810	17.349
0.4800	17.267
0.4790	17.349
0.4780	17.307
0.4770	17.392
0.4760	17.392
0.4750	17.101
0.4740	17.114
0.4730	17.129
0.4720	17.103
0.4710	17.103
0.4700	17.005
0.4690	17.005
0.4680	17.075
0.4670	17.116
0.4660	16.921
0.4650	16.934
0.4640	16.837
0.4630	16.908
0.4620	16.870
0.4610	16.870
0.4600	16.689
0.4590	17.040
0.4580	17.128
0.4570	17.017
0.4560	16.929
0.4550	16.942
0.4540	16.830
0.4530	16.842
0.4520	16.891
0.4510	16.891
0.4500	17.030
0.4490	16.867
0.4480	16.715
0.4470	16.827
0.4460	16.660
0.4450	16.696
0.4440	16.335
0.4430	16.347
0.4420	16.440
0.4410	16.267
0.4400	16.357
0.4390	16.244
0.4380	16.076
0.4370	16.029
0.4360	16.131
0.4350	16.277
0.4340	16.038
0.4330	16.016
0.4320	16.060
0.4310	16.071
0.4300	15.978
0.4290	15.630
0.4280	15.423
0.4270	15.483
0.4260	15.443
0.4250	15.630
0.4240	15.319
0.4230	15.351
0.4220	15.276
0.4210	15.171
0.4200	15.191
0.4190	15.039
0.4180	15.245
0.4170	15.029
0.4160	15.268
0.4150	15.081
0.4140	14.860
0.4130	14.896
0.4120	14.887
0.4110	14.843
0.4100	14.758
0.4090	14.758
0.4080	14.758
0.4070	14.487
0.4060	14.614
0.4050	14.597
0.4040	14.520
0.4030	14.512
0.4020	14.529
0.4010	14.441
0.4000	14.111
