Name: Felsitic Gneiss 
Type:  Rocks
Class: Metamorphic 
Subclass: Gneiss 
Particle Size:  500-1500 Micrometer
Sample No.:  gneiss3.doc
Owner:  JHU
Wavelength Range:  All
Origin:  Sample No. 310, The Hunt and Salisbury Collection at the U.S. 
Geological Survey, Denver, Co.
Description: This coarse to very coarse-grained sample consists of anhedra of 
quartz, alkali feldspar (albite, orthoclase, microcline) and brown and green biotite.  
Some regions  are heavily sericitized, and sericitization has also occurred along 
most feldspar grain boundaries and cracks.  There are scattered opaques and 
some myrmeketic texture in this sample along with a trace of zircon.   
 
Measurement:  Directional (10 Degree) Hemispherical Reflectance
First Column:  X
Second Column:  Y  
X Units:  Wavelength (micrometers)
Y Units:  Reflectance (percent)
First X Value: 14.0112
Last X Value:  0.4
Number of X Values: 2844
Additional Information:  gneiss3a.txt

14.0112	2.8914	
13.9734	2.947	
13.9359	2.9981	
13.8985	3.0316	
13.8614	3.0364	
13.8244	3.0074	
13.7876	2.9526	
13.7511	2.8952	
13.7147	2.8592	
13.6785	2.8605	
13.6425	2.902	
13.6067	2.9742	
13.5711	3.0649	
13.5356	3.1578	
13.5004	3.2386	
13.4653	3.2987	
13.4304	3.3319
13.3957	3.3364
13.3612	3.3161
13.3269	3.2841
13.2927	3.262
13.2587	3.268
13.2249	3.3113
13.1912	3.3912
13.1577	3.4944
13.1244	3.6006
13.0913	3.6908
13.0583	3.7597
13.0255	3.8143
12.9929	3.8719
12.9604	3.9542
12.9281	4.0741
12.8959	4.2243
12.8639	4.3765
12.8321	4.4904
12.8004	4.5282
12.7688	4.4671
12.7375	4.3174
12.7063	4.124
12.6752	3.9463
12.6443	3.8341
12.6135	3.8152
12.5829	3.882
12.5524	3.9879
12.5221	4.0643
12.4919	4.0456
12.4619	3.8896
12.432	3.5891
12.4023	3.179
12.3727	2.7314
12.3432	2.3292
12.3139	2.0402
12.2847	1.8986
12.2557	1.8951
12.2268	1.9872
12.198	2.117
12.1694	2.237
12.1409	2.3212
12.1125	2.3684
12.0843	2.3906
12.0562	2.4031
12.0282	2.4193
12.0003	2.4485
11.9726	2.4945
11.945	2.5572
11.9176	2.6314
11.8903	2.712
11.8631	2.7873
11.836	2.8441
11.809	2.8804
11.7822	2.9027
11.7555	2.9228
11.7289	2.9529
11.7024	3.0034
11.676	3.0768
11.6498	3.1606
11.6237	3.236
11.5977	3.2936
11.5718	3.3288
11.546	3.3427
11.5203	3.3462
11.4948	3.3565
11.4694	3.3827
11.444	3.4242
11.4188	3.4803
11.3937	3.5492
11.3688	3.6235
11.3439	3.6927
11.3191	3.7502
11.2944	3.7937
11.2699	3.8219
11.2455	3.842
11.2211	3.8695
11.1969	3.9169
11.1727	3.9874
11.1487	4.0739
11.1248	4.1592
11.101	4.2277
11.0773	4.2696
11.0536	4.2887
11.0301	4.3004
11.0067	4.321
10.9834	4.3635
10.9602	4.4279
10.937	4.5035
10.914	4.5777
10.8911	4.6402
10.8682	4.6875
10.8455	4.7256
10.8229	4.7682
10.8003	4.8265
10.7779	4.9043
10.7555	4.9995
10.7332	5.1053
10.7111	5.2096
10.689	5.3002
10.667	5.3721
10.6451	5.4292
10.6233	5.4768
10.6015	5.5225
10.5799	5.5783
10.5584	5.6536
10.5369	5.7501
10.5155	5.8604
10.4942	5.9761
10.473	6.0915
10.4519	6.1982
10.4309	6.2939
10.4099	6.386
10.3891	6.4865
10.3683	6.6054
10.3476	6.7423
10.327	6.8942
10.3065	7.0597
10.286	7.2342
10.2656	7.4148
10.2454	7.6072
10.2251	7.8189
10.205	8.0534
10.185	8.2975
10.165	8.5345
10.1451	8.7551
10.1253	8.9545
10.1056	9.1356
10.0859	9.3157
10.0663	9.5143
10.0468	9.7397
10.0274	9.9816
10.008	10.2213
9.9887	10.4431
9.9695	10.6336
9.9504	10.7865
9.9313	10.908
9.9123	11.0046
9.8934	11.0752
9.8746	11.1142
9.8558	11.1223
9.8371	11.1095
9.8185	11.0893
9.7999	11.0851
9.7814	11.124
9.763	11.2221
9.7447	11.3738
9.7264	11.5623
9.7082	11.7703
9.69	11.977
9.6719	12.1624
9.6539	12.3215
9.636	12.4598
9.6181	12.5777
9.6003	12.6648
9.5825	12.7103
9.5649	12.7098
9.5472	12.6653
9.5297	12.5856
9.5122	12.4983
9.4948	12.4397
9.4774	12.4411
9.4601	12.528
9.4429	12.7179
9.4257	13.0194
9.4086	13.4249
9.3916	13.9066
9.3746	14.4215
9.3577	14.9215
9.3408	15.3618
9.324	15.7137
9.3073	15.9728
9.2906	16.1503
9.274	16.2671
9.2574	16.3435
9.2409	16.3906
9.2245	16.4128
9.2081	16.4092
9.1918	16.3785
9.1755	16.3226
9.1593	16.2411
9.1431	16.135
9.127	16.012
9.111	15.88
9.095	15.7491
9.0791	15.6292
9.0632	15.5302
9.0474	15.4584
9.0316	15.4108
9.0159	15.3794
9.0003	15.3575
8.9847	15.3397
8.9691	15.328
8.9536	15.3288
8.9382	15.3497
8.9228	15.3967
8.9075	15.4672
8.8922	15.5541
8.877	15.6445
8.8618	15.7266
8.8467	15.7948
8.8316	15.8467
8.8166	15.8817
8.8016	15.8988
8.7867	15.9008
8.7718	15.8912
8.757	15.8661
8.7422	15.8106
8.7275	15.6965
8.7129	15.4878
8.6982	15.1588
8.6837	14.7124
8.6692	14.203
8.6547	13.7331
8.6403	13.4187
8.6259	13.3465
8.6116	13.5393
8.5973	13.9492
8.583	14.4741
8.5688	14.9935
8.5547	15.4158
8.5406	15.7041
8.5266	15.8687
8.5126	15.946
8.4986	15.9785
8.4847	16.0004
8.4708	16.025
8.457	16.0479
8.4432	16.0578
8.4295	16.047
8.4158	16.0102
8.4022	15.9453
8.3886	15.8582
8.375	15.7567
8.3615	15.6445
8.3481	15.5187
8.3347	15.3733
8.3213	15.2041
8.3079	15.0069
8.2946	14.783
8.2814	14.5404
8.2682	14.286
8.255	14.0188
8.2419	13.729
8.2288	13.4046
8.2158	13.0362
8.2028	12.6158
8.1898	12.1447
8.1769	11.6302
8.164	11.0795
8.1512	10.4955
8.1384	9.8825
8.1256	9.2504
8.1129	8.6147
8.1002	7.9895
8.0876	7.3907
8.075	6.8301
8.0624	6.3133
8.0499	5.8383
8.0374	5.402
8.025	5.0004
8.0126	4.6303
8.0002	4.2844
7.9879	3.958
7.9756	3.6501
7.9634	3.3608
7.9512	3.0902
7.939	2.8396
7.9268	2.6115
7.9147	2.4065
7.9027	2.2222
7.8906	2.0561
7.8786	1.9071
7.8667	1.7734
7.8548	1.6521
7.8429	1.5434
7.831	1.4499
7.8192	1.3717
7.8075	1.3063
7.7957	1.2494
7.784	1.1943
7.7723	1.1355
7.7607	1.0716
7.7491	1.0066
7.7375	0.9477
7.726	0.902
7.7145	0.8733
7.7031	0.8595
7.6916	0.8532
7.6802	0.8474
7.6689	0.8362
7.6575	0.817
7.6462	0.791
7.635	0.7635
7.6238	0.7395
7.6126	0.7214
7.6014	0.7094
7.5903	0.703
7.5792	0.7008
7.5681	0.701
7.5571	0.7025
7.5461	0.7061
7.5351	0.7104
7.5242	0.7132
7.5133	0.7139
7.5024	0.7128
7.4916	0.7104
7.4807	0.7082
7.47	0.707
7.4592	0.7068
7.4485	0.7046
7.4378	0.6996
7.4272	0.6938
7.4165	0.6893
7.4059	0.6872
7.3954	0.6902
7.3848	0.6977
7.3743	0.7053
7.3639	0.7094
7.3534	0.7096
7.343	0.7084
7.3326	0.708
7.3223	0.7106
7.3119	0.7194
7.3016	0.7297
7.2914	0.7352
7.2811	0.733
7.2709	0.7249
7.2607	0.7164
7.2506	0.7137
7.2404	0.7235
7.2303	0.7472
7.2203	0.7773
7.2102	0.8059
7.2002	0.8259
7.1902	0.8357
7.1803	0.8369
7.1703	0.8338
7.1604	0.8314
7.1506	0.8307
7.1407	0.8321
7.1309	0.8384
7.1211	0.8505
7.1113	0.8704
7.1016	0.8967
7.0919	0.9259
7.0822	0.953
7.0725	0.9699
7.0629	0.9752
7.0533	0.9721
7.0437	0.9666
7.0341	0.9647
7.0246	0.9699
7.0151	0.9815
7.0056	0.9943
6.9962	1.0018
6.9867	1.0018
6.9773	0.997
6.9679	0.9924
6.9586	0.9915
6.9493	0.9946
6.94	0.9999
6.9307	1.0027
6.9214	0.9986
6.9122	0.9893
6.903	0.9802
6.8938	0.975
6.8847	0.9747
6.8755	0.9793
6.8664	0.9898
6.8573	1.0027
6.8483	1.0147
6.8393	1.0257
6.8302	1.0367
6.8213	1.0449
6.8123	1.0461
6.8034	1.0414
6.7944	1.0353
6.7855	1.0288
6.7767	1.0268
6.7678	1.0336
6.759	1.0494
6.7502	1.069
6.7414	1.0855
6.7327	1.0953
6.7239	1.0972
6.7152	1.0937
6.7065	1.0899
6.6979	1.0894
6.6892	1.0924
6.6806	1.0967
6.672	1.0992
6.6634	1.0989
6.6549	1.0987
6.6464	1.103
6.6378	1.1151
6.6294	1.1334
6.6209	1.1546
6.6124	1.1764
6.604	1.1941
6.5956	1.2054
6.5872	1.2116
6.5789	1.214
6.5705	1.2126
6.5622	1.2064
6.5539	1.1982
6.5456	1.1908
6.5374	1.1838
6.5292	1.1784
6.5209	1.1762
6.5128	1.1769
6.5046	1.1795
6.4964	1.1853
6.4883	1.1963
6.4802	1.2121
6.4721	1.2295
6.464	1.2463
6.456	1.2595
6.448	1.265
6.4399	1.2607
6.432	1.2489
6.424	1.2341
6.416	1.2212
6.4081	1.2137
6.4002	1.214
6.3923	1.22
6.3844	1.2269
6.3766	1.2303
6.3687	1.2295
6.3609	1.2276
6.3531	1.2283
6.3454	1.2343
6.3376	1.2441
6.3299	1.2522
6.3221	1.2522
6.3144	1.242
6.3068	1.2228
6.2991	1.2013
6.2914	1.1833
6.2838	1.1738
6.2762	1.1736
6.2686	1.179
6.2611	1.185
6.2535	1.1865
6.246	1.1824
6.2385	1.1745
6.231	1.1666
6.2235	1.1649
6.216	1.175
6.2086	1.1973
6.2011	1.2248
6.1937	1.2492
6.1863	1.2628
6.179	1.2633
6.1716	1.2527
6.1643	1.2396
6.157	1.2338
6.1496	1.2398
6.1424	1.2554
6.1351	1.2736
6.1278	1.2874
6.1206	1.2932
6.1134	1.292
6.1062	1.2886
6.099	1.2891
6.0918	1.2972
6.0847	1.3111
6.0776	1.3248
6.0704	1.3331
6.0633	1.3353
6.0563	1.3341
6.0492	1.3336
6.0421	1.3387
6.0351	1.3501
6.0281	1.3645
6.0211	1.3736
6.0141	1.3717
6.0071	1.3597
6.0002	1.3422
5.9932	1.3276
5.9863	1.3236
5.9794	1.3331
5.9725	1.3545
5.9657	1.3805
5.9588	1.4035
5.952	1.4188
5.9451	1.4245
5.9383	1.4238
5.9315	1.4209
5.9247	1.4195
5.918	1.4222
5.9112	1.4308
5.9045	1.443
5.8978	1.4556
5.8911	1.4647
5.8844	1.4693
5.8777	1.4698
5.8711	1.4676
5.8644	1.4652
5.8578	1.4667
5.8512	1.4748
5.8446	1.4889
5.838	1.5064
5.8314	1.526
5.8249	1.5473
5.8184	1.5661
5.8118	1.5789
5.8053	1.5858
5.7988	1.5887
5.7923	1.5875
5.7859	1.5817
5.7794	1.5748
5.773	1.5698
5.7666	1.5681
5.7602	1.5703
5.7538	1.5791
5.7474	1.5951
5.741	1.6159
5.7347	1.6358
5.7283	1.6509
5.722	1.659
5.7157	1.6587
5.7094	1.6514
5.7031	1.6406
5.6969	1.6298
5.6906	1.6209
5.6844	1.6143
5.6782	1.6081
5.6719	1.6025
5.6657	1.5973
5.6596	1.5923
5.6534	1.5875
5.6472	1.5842
5.6411	1.5832
5.6349	1.5842
5.6288	1.5872
5.6227	1.5935
5.6166	1.603
5.6106	1.6131
5.6045	1.6212
5.5984	1.6255
5.5924	1.6245
5.5864	1.6184
5.5804	1.6102
5.5744	1.604
5.5684	1.6028
5.5624	1.6064
5.5564	1.6136
5.5505	1.6231
5.5445	1.6322
5.5386	1.6408
5.5327	1.6504
5.5268	1.6614
5.5209	1.6745
5.5151	1.6903
5.5092	1.708
5.5033	1.7263
5.4975	1.7432
5.4917	1.7576
5.4859	1.7683
5.4801	1.7736
5.4743	1.7746
5.4685	1.7751
5.4628	1.7784
5.457	1.788
5.4513	1.8033
5.4455	1.8231
5.4398	1.843
5.4341	1.8571
5.4284	1.8619
5.4228	1.8586
5.4171	1.8514
5.4114	1.8445
5.4058	1.8418
5.4002	1.8463
5.3945	1.8571
5.3889	1.87
5.3833	1.8796
5.3778	1.8846
5.3722	1.8841
5.3666	1.8787
5.3611	1.871
5.3555	1.8636
5.35	1.8581
5.3445	1.8552
5.339	1.8549
5.3335	1.8581
5.328	1.8641
5.3225	1.8715
5.3171	1.8782
5.3116	1.8818
5.3062	1.8832
5.3008	1.8853
5.2954	1.8911
5.29	1.9037
5.2846	1.9246
5.2792	1.9504
5.2738	1.9753
5.2684	1.9945
5.2631	2.006
5.2578	2.0114
5.2524	2.0136
5.2471	2.0176
5.2418	2.0282
5.2365	2.0458
5.2312	2.0694
5.226	2.0954
5.2207	2.1208
5.2154	2.1414
5.2102	2.154
5.205	2.1593
5.1998	2.1593
5.1945	2.1581
5.1893	2.1595
5.1842	2.167
5.179	2.1813
5.1738	2.2022
5.1686	2.2246
5.1635	2.2442
5.1584	2.2571
5.1532	2.2621
5.1481	2.2613
5.143	2.2583
5.1379	2.2614
5.1328	2.2756
5.1277	2.3
5.1227	2.3308
5.1176	2.3624
5.1126	2.3902
5.1075	2.4105
5.1025	2.4236
5.0975	2.4328
5.0925	2.4409
5.0875	2.4485
5.0825	2.457
5.0775	2.4663
5.0726	2.477
5.0676	2.4864
5.0627	2.4928
5.0577	2.4971
5.0528	2.5016
5.0479	2.5108
5.043	2.5294
5.038	2.5599
5.0332	2.5971
5.0283	2.6316
5.0234	2.655
5.0185	2.6631
5.0137	2.6586
5.0088	2.6479
5.004	2.6419
4.9992	2.6481
4.9944	2.667
4.9896	2.6938
4.9848	2.7254
4.98	2.7584
4.9752	2.7905
4.9704	2.8213
4.9657	2.8541
4.9609	2.8885
4.9562	2.9211
4.9514	2.9483
4.9467	2.9704
4.942	2.9873
4.9373	3.0008
4.9326	3.0134
4.9279	3.0302
4.9232	3.0529
4.9186	3.0809
4.9139	3.1149
4.9092	3.1568
4.9046	3.2079
4.9	3.2683
4.8953	3.3386
4.8907	3.4199
4.8861	3.5115
4.8815	3.6111
4.8769	3.7168
4.8723	3.8257
4.8678	3.9331
4.8632	4.0329
4.8586	4.1227
4.8541	4.2025
4.8495	4.2762
4.845	4.3489
4.8405	4.4248
4.836	4.5043
4.8315	4.5849
4.827	4.661
4.8225	4.7272
4.818	4.7801
4.8135	4.8203
4.809	4.8519
4.8046	4.878
4.8001	4.9028
4.7957	4.9309
4.7913	4.9644
4.7868	5.0036
4.7824	5.0488
4.778	5.1002
4.7736	5.1574
4.7692	5.2177
4.7648	5.2795
4.7605	5.3417
4.7561	5.4034
4.7517	5.4642
4.7474	5.5233
4.7431	5.5802
4.7387	5.6333
4.7344	5.681
4.7301	5.7223
4.7258	5.7568
4.7215	5.7838
4.7172	5.8015
4.7129	5.8053
4.7086	5.7917
4.7043	5.7606
4.7	5.7159
4.6958	5.6651
4.6915	5.6209
4.6873	5.597
4.6831	5.6013
4.6788	5.6357
4.6746	5.6996
4.6704	5.7897
4.6662	5.9008
4.662	6.0254
4.6578	6.1575
4.6536	6.291
4.6495	6.4195
4.6453	6.5382
4.6411	6.649
4.637	6.7583
4.6328	6.8734
4.6287	6.9988
4.6246	7.1347
4.6205	7.2773
4.6163	7.4186
4.6122	7.5507
4.6081	7.6701
4.604	7.7771
4.6	7.8754
4.5959	7.9692
4.5918	8.0623
4.5877	8.1577
4.5837	8.256
4.5796	8.3577
4.5756	8.4618
4.5716	8.5669
4.5675	8.67
4.5635	8.7669
4.5595	8.8506
4.5555	8.914
4.5515	8.9518
4.5475	8.964
4.5435	8.9528
4.5395	8.9238
4.5356	8.8853
4.5316	8.8439
4.5276	8.8021
4.5237	8.7585
4.5197	8.7101
4.5158	8.6552
4.5119	8.5929
4.508	8.5264
4.504	8.4645
4.5001	8.4166
4.4962	8.3901
4.4923	8.386
4.4884	8.4015
4.4846	8.4311
4.4807	8.4709
4.4768	8.5221
4.473	8.5898
4.4691	8.6791
4.4652	8.793
4.4614	8.9279
4.4576	9.0736
4.4537	9.2193
4.4499	9.3583
4.4461	9.4891
4.4423	9.6148
4.4385	9.7406
4.4347	9.8737
4.4309	10.0168
4.4271	10.168
4.4233	10.3256
4.4196	10.4879
4.4158	10.6532
4.412	10.8217
4.4083	10.996
4.4045	11.1797
4.4008	11.3767
4.3971	11.5884
4.3934	11.8155
4.3896	12.0557
4.3859	12.3036
4.3822	12.5538
4.3785	12.8021
4.3748	13.0463
4.3711	13.286
4.3674	13.5221
4.3638	13.7561
4.3601	13.9868
4.3564	14.2107
4.3528	14.4236
4.3491	14.6222
4.3455	14.8053
4.3418	14.9716
4.3382	15.1235
4.3346	15.2624
4.331	15.3895
4.3273	15.5039
4.3237	15.6029
4.3201	15.6869
4.3165	15.7562
4.3129	15.8115
4.3094	15.8556
4.3058	15.8925
4.3022	15.9288
4.2986	15.9702
4.2951	16.0209
4.2915	16.0845
4.288	16.1609
4.2844	16.2459
4.2809	16.3367
4.2774	16.4372
4.2738	16.5559
4.2703	16.7016
4.2668	16.8796
4.2633	17.0868
4.2598	17.3089
4.2563	17.5227
4.2528	17.7103
4.2493	17.8629
4.2458	17.9823
4.2424	18.0802
4.2389	18.1752
4.2354	18.2841
4.232	18.4144
4.2285	18.5673
4.2251	18.7389
4.2216	18.9183
4.2182	19.0929
4.2148	19.2549
4.2113	19.402
4.2079	19.5356
4.2045	19.6581
4.2011	19.778
4.1977	19.9021
4.1943	20.0323
4.1909	20.1687
4.1875	20.3123
4.1841	20.4596
4.1808	20.6051
4.1774	20.7448
4.174	20.8773
4.1707	21.002
4.1673	21.1168
4.164	21.2241
4.1606	21.3272
4.1573	21.4293
4.154	21.533
4.1506	21.6415
4.1473	21.7571
4.144	21.8769
4.1407	21.9964
4.1374	22.1108
4.1341	22.2177
4.1308	22.3176
4.1275	22.4134
4.1242	22.5083
4.1209	22.6055
4.1177	22.707
4.1144	22.8144
4.1111	22.9283
4.1079	23.0498
4.1046	23.1783
4.1014	23.3089
4.0981	23.4352
4.0949	23.5518
4.0917	23.6556
4.0884	23.7473
4.0852	23.8288
4.082	23.9042
4.0788	23.9755
4.0756	24.0432
4.0724	24.1083
4.0692	24.1727
4.066	24.2353
4.0628	24.2934
4.0596	24.3418
4.0565	24.3757
4.0533	24.3918
4.0501	24.3918
4.047	24.3822
4.0438	24.3714
4.0406	24.3633
4.0375	24.359
4.0344	24.3581
4.0312	24.3603
4.0281	24.3641
4.025	24.3696
4.0218	24.376
4.0187	24.381
4.0156	24.38
4.0125	24.3693
4.0094	24.3497
4.0063	24.3258
4.0032	24.3035
4.0001	24.2874
3.997	24.2803
3.994	24.2836
3.9909	24.297
3.9878	24.3219
3.9847	24.3614
3.9817	24.4172
3.9786	24.4879
3.9756	24.5698
3.9725	24.6591
3.9695	24.7533
3.9665	24.8533
3.9634	24.9631
3.9604	25.0863
3.9574	25.2216
3.9544	25.3637
3.9513	25.506
3.9483	25.6422
3.9453	25.7666
3.9423	25.8766
3.9393	25.9752
3.9363	26.0645
3.9333	26.1446
3.9304	26.2169
3.9274	26.2838
3.9244	26.3458
3.9214	26.4028
3.9185	26.4537
3.9155	26.4992
3.9126	26.5367
3.9096	26.5621
3.9067	26.5729
3.9037	26.5686
3.9008	26.5507
3.8979	26.5224
3.8949	26.4911
3.892	26.4635
3.8891	26.4439
3.8862	26.431
3.8833	26.4195
3.8804	26.4037
3.8775	26.3781
3.8746	26.3425
3.8717	26.301
3.8688	26.2632
3.8659	26.2386
3.863	26.2315
3.8601	26.2406
3.8573	26.2628
3.8544	26.2915
3.8515	26.319
3.8487	26.3415
3.8458	26.3596
3.843	26.3745
3.8401	26.3891
3.8373	26.4068
3.8344	26.4329
3.8316	26.469
3.8288	26.5135
3.8259	26.5653
3.8231	26.62
3.8203	26.6733
3.8175	26.722
3.8147	26.7648
3.8119	26.8021
3.8091	26.832
3.8063	26.8543
3.8035	26.8691
3.8007	26.8762
3.7979	26.877
3.7951	26.8705
3.7924	26.8556
3.7896	26.8279
3.7868	26.7829
3.7841	26.7224
3.7813	26.6523
3.7785	26.5824
3.7758	26.5238
3.773	26.4824
3.7703	26.4569
3.7676	26.4358
3.7648	26.4076
3.7621	26.3647
3.7594	26.3042
3.7566	26.232
3.7539	26.1596
3.7512	26.0975
3.7485	26.0509
3.7458	26.0185
3.7431	25.9958
3.7404	25.9762
3.7377	25.9528
3.735	25.9254
3.7323	25.8977
3.7296	25.8743
3.7269	25.8615
3.7242	25.864
3.7216	25.8836
3.7189	25.9176
3.7162	25.9591
3.7136	26.0037
3.7109	26.0458
3.7083	26.0824
3.7056	26.114
3.703	26.1434
3.7003	26.1731
3.6977	26.2034
3.695	26.2338
3.6924	26.2662
3.6898	26.3006
3.6872	26.3367
3.6845	26.3741
3.6819	26.4116
3.6793	26.4473
3.6767	26.477
3.6741	26.4984
3.6715	26.5135
3.6689	26.5226
3.6663	26.5276
3.6637	26.5296
3.6611	26.5279
3.6585	26.5224
3.656	26.5107
3.6534	26.4932
3.6508	26.4707
3.6482	26.4436
3.6457	26.4128
3.6431	26.3762
3.6406	26.3314
3.638	26.2774
3.6355	26.2154
3.6329	26.1523
3.6304	26.0962
3.6278	26.0517
3.6253	26.0212
3.6227	25.9998
3.6202	25.9785
3.6177	25.9479
3.6152	25.9035
3.6127	25.8467
3.6101	25.7823
3.6076	25.7149
3.6051	25.6498
3.6026	25.5881
3.6001	25.5287
3.5976	25.4696
3.5951	25.4089
3.5926	25.3459
3.5901	25.2815
3.5876	25.2179
3.5852	25.1579
3.5827	25.1024
3.5802	25.0519
3.5777	25.0045
3.5753	24.9567
3.5728	24.9062
3.5704	24.8498
3.5679	24.7832
3.5654	24.7052
3.563	24.6167
3.5605	24.5203
3.5581	24.4222
3.5557	24.3317
3.5532	24.2575
3.5508	24.1994
3.5484	24.1521
3.5459	24.1093
3.5435	24.064
3.5411	24.0099
3.5387	23.9456
3.5363	23.8726
3.5338	23.7927
3.5314	23.7035
3.529	23.6039
3.5266	23.4963
3.5242	23.3862
3.5218	23.28
3.5195	23.1811
3.5171	23.0936
3.5147	23.0149
3.5123	22.9386
3.5099	22.8584
3.5075	22.7718
3.5052	22.6808
3.5028	22.5887
3.5004	22.499
3.4981	22.4177
3.4957	22.3464
3.4934	22.2829
3.491	22.2232
3.4887	22.1621
3.4863	22.0947
3.484	22.0179
3.4816	21.9342
3.4793	21.8502
3.477	21.7722
3.4746	21.704
3.4723	21.6468
3.47	21.5972
3.4677	21.5458
3.4653	21.4829
3.463	21.4027
3.4607	21.3034
3.4584	21.1877
3.4561	21.0637
3.4538	20.9424
3.4515	20.8322
3.4492	20.7349
3.4469	20.6471
3.4446	20.5618
3.4423	20.4725
3.44	20.3785
3.4378	20.2837
3.4355	20.1938
3.4332	20.1134
3.4309	20.0429
3.4287	19.9737
3.4264	19.8957
3.4241	19.8021
3.4219	19.6925
3.4196	19.573
3.4174	19.4516
3.4151	19.3399
3.4129	19.2437
3.4106	19.1612
3.4084	19.0855
3.4061	19.009
3.4039	18.9255
3.4017	18.8322
3.3994	18.7288
3.3972	18.6202
3.395	18.5103
3.3928	18.4024
3.3906	18.2982
3.3883	18.1962
3.3861	18.0955
3.3839	17.9933
3.3817	17.8872
3.3795	17.7756
3.3773	17.6603
3.3751	17.5449
3.3729	17.4335
3.3707	17.327
3.3685	17.2267
3.3663	17.1329
3.3641	17.0438
3.362	16.9566
3.3598	16.871
3.3576	16.785
3.3554	16.6939
3.3533	16.5932
3.3511	16.4853
3.3489	16.3767
3.3468	16.2733
3.3446	16.1824
3.3425	16.1063
3.3403	16.0402
3.3382	15.9721
3.336	15.8927
3.3339	15.7979
3.3317	15.6915
3.3296	15.5793
3.3274	15.4694
3.3253	15.366
3.3232	15.2689
3.321	15.1741
3.3189	15.079
3.3168	14.982
3.3147	14.8861
3.3126	14.7959
3.3104	14.7128
3.3083	14.633
3.3062	14.5518
3.3041	14.4655
3.302	14.37
3.2999	14.2657
3.2978	14.1581
3.2957	14.0545
3.2936	13.9569
3.2915	13.8628
3.2894	13.7688
3.2874	13.6726
3.2853	13.5728
3.2832	13.4712
3.2811	13.3711
3.279	13.2766
3.277	13.1872
3.2749	13.0989
3.2728	13.0089
3.2708	12.9173
3.2687	12.8247
3.2666	12.7326
3.2646	12.6424
3.2625	12.5558
3.2605	12.4711
3.2584	12.3851
3.2564	12.2971
3.2543	12.2081
3.2523	12.1196
3.2503	12.0329
3.2482	11.9494
3.2462	11.8698
3.2442	11.7914
3.2421	11.7119
3.2401	11.6302
3.2381	11.5464
3.2361	11.4621
3.234	11.3801
3.232	11.3006
3.23	11.2231
3.228	11.145
3.226	11.0645
3.224	10.9792
3.222	10.8886
3.22	10.7958
3.218	10.7055
3.216	10.6211
3.214	10.5426
3.212	10.4704
3.21	10.4024
3.208	10.334
3.206	10.2605
3.204	10.1813
3.2021	10.0988
3.2001	10.0155
3.1981	9.9337
3.1961	9.8558
3.1942	9.7837
3.1922	9.7145
3.1902	9.6438
3.1883	9.5672
3.1863	9.4835
3.1844	9.3942
3.1824	9.3011
3.1805	9.2086
3.1785	9.1231
3.1766	9.0482
3.1746	8.9829
3.1727	8.9219
3.1707	8.8609
3.1688	8.7968
3.1669	8.7272
3.1649	8.652
3.163	8.5747
3.1611	8.5003
3.1591	8.4304
3.1572	8.3657
3.1553	8.3063
3.1534	8.253
3.1515	8.206
3.1495	8.1642
3.1476	8.1242
3.1457	8.0847
3.1438	8.0434
3.1419	7.9962
3.14	7.9441
3.1381	7.8895
3.1362	7.8362
3.1343	7.7857
3.1324	7.7369
3.1305	7.6881
3.1286	7.6368
3.1268	7.5844
3.1249	7.533
3.123	7.4842
3.1211	7.4409
3.1192	7.4033
3.1174	7.3689
3.1155	7.3344
3.1136	7.2992
3.1117	7.266
3.1099	7.2332
3.108	7.1971
3.1061	7.1578
3.1043	7.116
3.1024	7.0722
3.1006	7.0282
3.0987	6.9875
3.0969	6.9535
3.095	6.9244
3.0932	6.8985
3.0913	6.8774
3.0895	6.8619
3.0876	6.8514
3.0858	6.8413
3.084	6.8267
3.0821	6.8031
3.0803	6.7697
3.0785	6.7294
3.0766	6.6879
3.0748	6.6532
3.073	6.6296
3.0712	6.6138
3.0694	6.5992
3.0675	6.583
3.0657	6.5645
3.0639	6.5439
3.0621	6.5247
3.0603	6.5116
3.0585	6.5049
3.0567	6.4975
3.0549	6.4805
3.0531	6.4535
3.0513	6.419
3.0495	6.3843
3.0477	6.3571
3.0459	6.342
3.0441	6.3372
3.0423	6.3305
3.0406	6.3114
3.0388	6.2779
3.037	6.2357
3.0352	6.1929
3.0334	6.1539
3.0317	6.1202
3.0299	6.0875
3.0281	6.0501
3.0264	6.0082
3.0246	5.9705
3.0228	5.9489
3.0211	5.9489
3.0193	5.9673
3.0176	5.9939
3.0158	6.0154
3.014	6.0223
3.0123	6.0111
3.0105	5.9862
3.0088	5.9556
3.007	5.925
3.0053	5.8965
3.0036	5.8702
3.0018	5.8448
3.0001	5.8206
2.9984	5.7984
2.9966	5.7807
2.9949	5.7709
2.9932	5.769
2.9914	5.7721
2.9897	5.7752
2.988	5.7726
2.9863	5.7585
2.9845	5.7281
2.9828	5.6838
2.9811	5.6312
2.9794	5.5764
2.9777	5.5261
2.976	5.4886
2.9743	5.4697
2.9726	5.4682
2.9709	5.4788
2.9692	5.4964
2.9675	5.5125
2.9658	5.5178
2.9641	5.5108
2.9624	5.4976
2.9607	5.4864
2.959	5.48
2.9573	5.4802
2.9556	5.4859
2.9539	5.4886
2.9523	5.4818
2.9506	5.4699
2.9489	5.4591
2.9472	5.4561
2.9455	5.4615
2.9439	5.4754
2.9422	5.4919
2.9405	5.5019
2.9389	5.5029
2.9372	5.4989
2.9355	5.4948
2.9339	5.4914
2.9322	5.4876
2.9306	5.4811
2.9289	5.4704
2.9272	5.4577
2.9256	5.4512
2.9239	5.4601
2.9223	5.4874
2.9207	5.5263
2.919	5.568
2.9174	5.6022
2.9157	5.6223
2.9141	5.6295
2.9124	5.6292
2.9108	5.6287
2.9092	5.6319
2.9075	5.6383
2.9059	5.6481
2.9043	5.6591
2.9027	5.6697
2.901	5.6818
2.8994	5.6958
2.8978	5.711
2.8962	5.7252
2.8946	5.7348
2.8929	5.7364
2.8913	5.7314
2.8897	5.7263
2.8881	5.7305
2.8865	5.7489
2.8849	5.7831
2.8833	5.8281
2.8817	5.8742
2.8801	5.9094
2.8785	5.9293
2.8769	5.9371
2.8753	5.9388
2.8737	5.9417
2.8721	5.9509
2.8705	5.9652
2.8689	5.9807
2.8673	5.9919
2.8658	5.9982
2.8642	6.002
2.8626	6.0078
2.861	6.0219
2.8594	6.0468
2.8579	6.0788
2.8563	6.1111
2.8547	6.1374
2.8531	6.1547
2.8516	6.1623
2.85	6.1625
2.8484	6.1623
2.8469	6.1673
2.8453	6.1798
2.8437	6.1975
2.8422	6.219
2.8406	6.2412
2.8391	6.2601
2.8375	6.2726
2.836	6.2779
2.8344	6.2791
2.8329	6.2789
2.8313	6.2817
2.8298	6.2937
2.8282	6.3176
2.8267	6.3526
2.8252	6.3916
2.8236	6.4243
2.8221	6.442
2.8205	6.4394
2.819	6.4193
2.8175	6.3932
2.8159	6.3722
2.8144	6.3664
2.8129	6.38
2.8114	6.4073
2.8098	6.4391
2.8083	6.4655
2.8068	6.4798
2.8053	6.481
2.8038	6.4721
2.8022	6.4621
2.8007	6.4578
2.7992	6.4618
2.7977	6.4757
2.7962	6.4953
2.7947	6.5116
2.7932	6.5162
2.7917	6.5051
2.7902	6.4801
2.7887	6.4465
2.7872	6.4117
2.7857	6.3829
2.7842	6.3616
2.7827	6.3425
2.7812	6.3186
2.7797	6.2832
2.7782	6.2339
2.7767	6.1743
2.7752	6.1099
2.7738	6.0453
2.7723	5.9831
2.7708	5.9245
2.7693	5.8697
2.7678	5.8161
2.7664	5.7656
2.7649	5.7247
2.7634	5.6986
2.7619	5.6891
2.7605	5.6946
2.759	5.713
2.7575	5.7409
2.7561	5.7731
2.7546	5.808
2.7531	5.8482
2.7517	5.8968
2.7502	5.9532
2.7488	6.0154
2.7473	6.0822
2.7458	6.1509
2.7444	6.2166
2.7429	6.2747
2.7415	6.3245
2.74	6.369
2.7386	6.4162
2.7371	6.4764
2.7357	6.5607
2.7343	6.6731
2.7328	6.8097
2.7314	6.9593
2.7299	7.1095
2.7285	7.2564
2.7271	7.4038
2.7256	7.5608
2.7242	7.7399
2.7228	7.9541
2.7213	8.2108
2.7199	8.5126
2.7185	8.8561
2.7171	9.2365
2.7156	9.6402
2.7142	10.0464
2.7128	10.4379
2.7114	10.802
2.71	11.1346
2.7085	11.441
2.7071	11.7396
2.7057	12.0578
2.7043	12.4205
2.7029	12.8484
2.7015	13.3613
2.7001	13.9695
2.6987	14.6708
2.6973	15.4558
2.6959	16.3145
2.6945	17.2357
2.6931	18.2034
2.6917	19.1999
2.6903	20.2089
2.6889	21.2075
2.6875	22.1664
2.6861	23.0581
2.6847	23.8621
2.6833	24.5688
2.6819	25.1818
2.6805	25.7146
2.6791	26.192
2.6778	26.6391
2.6764	27.0717
2.675	27.494
2.6736	27.9
2.6722	28.2798
2.6709	28.6242
2.6695	28.9281
2.6681	29.1982
2.6667	29.4516
2.6654	29.703
2.664	29.9629
2.6626	30.2356
2.6613	30.5182
2.6599	30.7993
2.6585	31.0635
2.6572	31.3011
2.6558	31.5094
2.6545	31.6908
2.6531	31.854
2.6517	32.0104
2.6504	32.1669
2.649	32.3239
2.6477	32.4798
2.6463	32.6299
2.645	32.767
2.6436	32.8871
2.6423	32.9926
2.6409	33.0862
2.6396	33.1704
2.6382	33.2508
2.6369	33.3333
2.6356	33.4173
2.6342	33.4972
2.6329	33.5721
2.6315	33.6412
2.6302	33.7044
2.6289	33.7635
2.6275	33.8217
2.6262	33.8788
2.6249	33.9286
2.6236	33.9661
2.6222	33.9941
2.6209	34.0154
2.6196	34.0375
2.6183	34.0697
2.6169	34.1152
2.6156	34.17
2.6143	34.2284
2.613	34.2848
2.6117	34.3353
2.6103	34.3784
2.609	34.4186
2.6077	34.4645
2.6064	34.5205
2.6051	34.5897
2.6038	34.6734
2.6025	34.7665
2.6012	34.8605
2.5999	34.9481
2.5986	35.0258
2.5973	35.0981
2.596	35.1715
2.5947	35.2548
2.5934	35.351
2.5921	35.4545
2.5908	35.5546
2.5895	35.6393
2.5882	35.7008
2.5869	35.7419
2.5856	35.7764
2.5843	35.8185
2.583	35.8778
2.5817	35.9527
2.5805	36.0333
2.5792	36.1049
2.5779	36.1542
2.5766	36.1779
2.5753	36.1834
2.5741	36.1839
2.5728	36.1932
2.5715	36.2207
2.5702	36.2664
2.569	36.3231
2.5677	36.3819
2.5664	36.436
2.5651	36.4843
2.5639	36.5313
2.5626	36.5846
2.5613	36.6475
2.5601	36.7159
2.5588	36.7808
2.5575	36.8358
2.5563	36.8789
2.555	36.9124
2.5538	36.9416
2.5525	36.9725
2.5513	37.0083
2.55	37.0485
2.5487	37.0906
2.5475	37.1342
2.5462	37.1808
2.545	37.2303
2.5437	37.2784
2.5425	37.3194
2.5413	37.3481
2.54	37.3617
2.5388	37.3591
2.5375	37.3442
2.5363	37.3279
2.535	37.321
2.5338	37.3275
2.5326	37.3473
2.5313	37.3777
2.5301	37.4117
2.5289	37.4411
2.5276	37.4617
2.5264	37.4753
2.5252	37.4811
2.5239	37.4751
2.5227	37.4552
2.5215	37.423
2.5202	37.3825
2.519	37.3404
2.5178	37.3053
2.5166	37.2813
2.5154	37.2645
2.5141	37.2442
2.5129	37.2117
2.5117	37.165
2.5105	37.1083
2.5093	37.0504
2.5081	37.0021
2.5068	36.9703
2.5056	36.9554
2.5044	36.9526
2.5032	36.9535
2.502	36.9544
2.5008	36.954
2.4996	36.9514
2.4984	36.9444
2.4972	36.9346
2.496	36.9234
2.4948	36.9107
2.4936	36.8988
2.4924	36.8953
2.4912	36.9061
2.49	36.9277
2.4888	36.9514
2.4876	36.9705
2.4864	36.9784
2.4852	36.9722
2.484	36.9569
2.4828	36.9433
2.4816	36.937
2.4805	36.9365
2.4793	36.9396
2.4781	36.9463
2.4769	36.9544
2.4757	36.965
2.4745	36.9813
2.4734	37.0037
2.4722	37.0251
2.471	37.0392
2.4698	37.0435
2.4686	37.0384
2.4675	37.026
2.4663	37.011
2.4651	36.9997
2.464	36.9961
2.4628	37.0016
2.4616	37.0174
2.4604	37.0435
2.4593	37.0784
2.4581	37.1189
2.4569	37.1612
2.4558	37.2021
2.4546	37.2375
2.4535	37.2641
2.4523	37.2804
2.4511	37.2859
2.45	37.2829
2.4488	37.2761
2.4477	37.2691
2.4465	37.2669
2.4454	37.2724
2.4442	37.2868
2.4431	37.31
2.4419	37.3402
2.4408	37.3742
2.4396	37.41
2.4385	37.4502
2.4373	37.5031
2.4362	37.5763
2.435	37.6715
2.4339	37.7845
2.4327	37.9032
2.4316	38.0111
2.4305	38.0969
2.4293	38.163
2.4282	38.2219
2.427	38.2881
2.4259	38.3713
2.4248	38.4735
2.4236	38.5862
2.4225	38.6968
2.4214	38.7979
2.4202	38.8913
2.4191	38.9817
2.418	39.0738
2.4169	39.1722
2.4157	39.276
2.4146	39.3774
2.4135	39.4688
2.4124	39.5488
2.4112	39.622
2.4101	39.6923
2.409	39.7626
2.4079	39.8361
2.4068	39.9117
2.4056	39.9811
2.4045	40.0368
2.4034	40.0787
2.4023	40.1122
2.4012	40.1426
2.4001	40.1723
2.399	40.206
2.3979	40.2443
2.3967	40.2804
2.3956	40.3046
2.3945	40.312
2.3934	40.3036
2.3923	40.2787
2.3912	40.2357
2.3901	40.1818
2.389	40.1253
2.3879	40.07
2.3868	40.0182
2.3857	39.9746
2.3846	39.9457
2.3835	39.9304
2.3824	39.9203
2.3813	39.9095
2.3802	39.8904
2.3791	39.8529
2.3781	39.7918
2.377	39.7098
2.3759	39.6147
2.3748	39.5126
2.3737	39.4011
2.3726	39.2772
2.3715	39.1396
2.3704	38.9886
2.3694	38.8283
2.3683	38.6644
2.3672	38.5049
2.3661	38.3563
2.365	38.2177
2.364	38.0852
2.3629	37.9588
2.3618	37.8359
2.3607	37.7065
2.3597	37.5601
2.3586	37.3959
2.3575	37.2258
2.3564	37.0664
2.3554	36.9373
2.3543	36.8559
2.3532	36.8236
2.3522	36.8236
2.3511	36.8339
2.35	36.8418
2.349	36.8452
2.3479	36.8492
2.3468	36.8652
2.3458	36.9035
2.3447	36.9657
2.3436	37.0473
2.3426	37.143
2.3415	37.2504
2.3405	37.3655
2.3394	37.4811
2.3384	37.5953
2.3373	37.7105
2.3363	37.8316
2.3352	37.9658
2.3342	38.1246
2.3331	38.3173
2.3321	38.5371
2.331	38.7673
2.33	38.9927
2.3289	39.2011
2.3279	39.3856
2.3268	39.5456
2.3258	39.6954
2.3247	39.8521
2.3237	40.0234
2.3226	40.2136
2.3216	40.4218
2.3206	40.6412
2.3195	40.8596
2.3185	41.0666
2.3175	41.2565
2.3164	41.429
2.3154	41.5893
2.3144	41.7516
2.3133	41.9255
2.3123	42.115
2.3113	42.3157
2.3102	42.5149
2.3092	42.6933
2.3082	42.8369
2.3071	42.9493
2.3061	43.0469
2.3051	43.1486
2.3041	43.2706
2.303	43.418
2.302	43.584
2.301	43.7532
2.3	43.913
2.299	44.0614
2.2979	44.2042
2.2969	44.3456
2.2959	44.4855
2.2949	44.6191
2.2939	44.7395
2.2929	44.8423
2.2918	44.9294
2.2908	45.0119
2.2898	45.1026
2.2888	45.2064
2.2878	45.3191
2.2868	45.4316
2.2858	45.5314
2.2848	45.6077
2.2838	45.6572
2.2828	45.6859
2.2818	45.7087
2.2808	45.7379
2.2798	45.7809
2.2787	45.8393
2.2777	45.9037
2.2767	45.9613
2.2757	45.9982
2.2747	46.0037
2.2738	45.9786
2.2728	45.9273
2.2718	45.8574
2.2708	45.7769
2.2698	45.695
2.2688	45.6197
2.2678	45.5522
2.2668	45.4897
2.2658	45.428
2.2648	45.3618
2.2638	45.2856
2.2628	45.1998
2.2618	45.1115
2.2609	45.0296
2.2599	44.9581
2.2589	44.8937
2.2579	44.8334
2.2569	44.7777
2.2559	44.7315
2.255	44.7038
2.254	44.7078
2.253	44.7521
2.252	44.8334
2.251	44.939
2.2501	45.0557
2.2491	45.1758
2.2481	45.294
2.2471	45.4107
2.2462	45.5352
2.2452	45.6715
2.2442	45.8192
2.2433	45.9711
2.2423	46.118
2.2413	46.2475
2.2403	46.3451
2.2394	46.41
2.2384	46.4535
2.2374	46.4887
2.2365	46.5303
2.2355	46.5886
2.2345	46.6621
2.2336	46.732
2.2326	46.7775
2.2317	46.7889
2.2307	46.7672
2.2297	46.7164
2.2288	46.646
2.2278	46.5657
2.2269	46.4747
2.2259	46.3647
2.225	46.2322
2.224	46.0785
2.2231	45.912
2.2221	45.739
2.2211	45.5608
2.2202	45.3744
2.2192	45.172
2.2183	44.943
2.2173	44.6825
2.2164	44.3949
2.2155	44.0953
2.2145	43.7993
2.2136	43.5161
2.2126	43.2467
2.2117	42.9888
2.2107	42.7323
2.2098	42.4664
2.2088	42.1925
2.2079	41.9263
2.207	41.6851
2.206	41.4831
2.2051	41.3279
2.2041	41.218
2.2032	41.1383
2.2023	41.069
2.2013	41.0004
2.2004	40.9386
2.1995	40.8981
2.1985	40.895
2.1976	40.9408
2.1967	41.0381
2.1957	41.1793
2.1948	41.3506
2.1939	41.5413
2.193	41.7444
2.192	41.961
2.1911	42.1918
2.1902	42.4347
2.1893	42.6907
2.1883	42.9687
2.1874	43.2751
2.1865	43.6077
2.1856	43.9611
2.1846	44.3343
2.1837	44.721
2.1828	45.106
2.1819	45.4821
2.181	45.8488
2.18	46.1975
2.1791	46.5128
2.1782	46.7908
2.1773	47.0456
2.1764	47.2921
2.1755	47.539
2.1746	47.796
2.1736	48.0656
2.1727	48.3326
2.1718	48.5752
2.1709	48.7831
2.17	48.9589
2.1691	49.1078
2.1682	49.2386
2.1673	49.3683
2.1664	49.5095
2.1655	49.6667
2.1646	49.8385
2.1637	50.0167
2.1628	50.1897
2.1619	50.345
2.161	50.4766
2.1601	50.5866
2.1592	50.6802
2.1583	50.7704
2.1574	50.8661
2.1565	50.9651
2.1556	51.0613
2.1547	51.1455
2.1538	51.2114
2.1529	51.252
2.152	51.267
2.1511	51.2705
2.1502	51.2761
2.1493	51.2934
2.1484	51.3259
2.1475	51.3745
2.1466	51.4386
2.1458	51.5112
2.1449	51.5844
2.144	51.6549
2.1431	51.7178
2.1422	51.7676
2.1413	51.7985
2.1404	51.8116
2.1396	51.8143
2.1387	51.8121
2.1378	51.8095
2.1369	51.808
2.136	51.8098
2.1352	51.8152
2.1343	51.82
2.1334	51.8183
2.1325	51.8083
2.1316	51.7887
2.1308	51.758
2.1299	51.7167
2.129	51.6722
2.1281	51.6307
2.1273	51.5917
2.1264	51.5592
2.1255	51.5415
2.1247	51.5429
2.1238	51.5626
2.1229	51.593
2.122	51.625
2.1212	51.6458
2.1203	51.6465
2.1194	51.6355
2.1186	51.6214
2.1177	51.6066
2.1168	51.592
2.116	51.5695
2.1151	51.5312
2.1143	51.4788
2.1134	51.4288
2.1125	51.4056
2.1117	51.4185
2.1108	51.4652
2.11	51.5377
2.1091	51.6138
2.1082	51.6712
2.1074	51.7059
2.1065	51.7286
2.1057	51.7494
2.1048	51.7705
2.104	51.7949
2.1031	51.826
2.1023	51.8551
2.1014	51.8707
2.1005	51.8767
2.0997	51.8791
2.0988	51.8774
2.098	51.8736
2.0971	51.876
2.0963	51.8898
2.0955	51.9071
2.0946	51.9195
2.0938	51.931
2.0929	51.9418
2.0921	51.9507
2.0912	51.963
2.0904	51.9815
2.0895	52.0013
2.0887	52.015
2.0879	52.0169
2.087	52.0183
2.0862	52.0262
2.0853	52.0317
2.0845	52.0676
2.0837	52.0895
2.0828	52.0643
2.082	52.1114
2.0812	51.8898
2.0803	51.7348
2.0795	51.708
2.076	51.8098
2.072	51.9373
2.068	51.9943
2.064	51.8169
2.06	51.5403
2.056	51.5463
2.052	51.3907
2.048	51.1459
2.044	50.7791
2.04	50.5317
2.036	50.2513
2.032	49.9735
2.028	49.7252
2.024	49.4104
2.02	49.1939
2.016	49.0941
2.012	48.9358
2.008	48.7117
2.004	48.4818
2	48.055
1.996	47.7511
1.992	47.5193
1.988	47.2915
1.984	46.9597
1.98	46.6881
1.976	46.4396
1.972	46.4231
1.968	46.0253
1.964	45.5611
1.96	45.1739
1.956	45.068
1.952	44.9216
1.948	44.7712
1.944	44.5424
1.94	44.2846
1.936	44.0312
1.932	43.8023
1.928	43.6959
1.924	43.6332
1.92	43.3818
1.916	43.1663
1.912	43.0791
1.908	43.1187
1.904	43.134
1.9	43.5527
1.896	44.1732
1.892	44.9731
1.888	45.647
1.884	46.7085
1.88	47.3088
1.876	47.6442
1.872	48.3225
1.868	48.6601
1.864	48.9082
1.86	49.105
1.856	49.3934
1.852	49.8022
1.848	49.8
1.844	49.8011
1.84	49.917
1.836	49.862
1.832	49.7647
1.828	49.7141
1.824	49.2932
1.82	49.4287
1.816	49.2391
1.812	49.2281
1.808	49.245
1.804	48.9846
1.8	49.0793
1.796	49.0067
1.792	49.052
1.788	49.0317
1.784	48.7747
1.78	48.5664
1.776	48.413
1.772	48.482
1.768	48.34
1.764	48.2782
1.76	48.3266
1.756	48.2441
1.752	48.1827
1.748	48.4619
1.744	48.4783
1.74	48.4813
1.736	48.144
1.732	47.8053
1.728	47.4839
1.724	47.3813
1.72	47.3048
1.716	47.4028
1.712	47.5337
1.708	47.2472
1.704	47.3485
1.7	46.8837
1.696	46.6306
1.692	46.5467
1.688	46.6628
1.684	46.4495
1.68	46.4674
1.676	46.258
1.672	46.0302
1.668	45.6869
1.664	45.7605
1.66	45.5311
1.656	45.4569
1.652	45.4453
1.648	45.4079
1.644	45.4348
1.64	45.2933
1.636	45.3656
1.632	45.2349
1.628	45.0426
1.624	44.8345
1.62	44.7524
1.616	44.6769
1.612	44.7161
1.608	44.7024
1.604	44.6487
1.6	44.495
1.596	44.2064
1.592	43.925
1.588	43.5643
1.584	43.6253
1.58	43.6482
1.576	43.387
1.572	43.3186
1.568	43.2608
1.564	43.1816
1.56	43.2056
1.556	43.0412
1.552	42.932
1.548	42.6896
1.544	42.5659
1.54	42.3872
1.536	42.4175
1.532	42.2598
1.528	42.2617
1.524	42.1522
1.52	42.0877
1.516	42.098
1.512	42.0288
1.508	41.7975
1.504	41.7308
1.5	41.504
1.496	40.7809
1.492	40.7087
1.488	40.7377
1.484	40.6462
1.48	40.4784
1.476	40.3846
1.472	40.3645
1.468	40.2298
1.464	40.1196
1.46	40.0207
1.456	39.9571
1.452	39.8527
1.448	39.5744
1.444	39.5876
1.44	39.4275
1.436	39.2625
1.432	39.168
1.428	39.1087
1.424	38.8381
1.42	38.3885
1.416	37.9508
1.412	37.2211
1.408	35.8998
1.404	35.1393
1.4	34.5958
1.396	34.9947
1.392	35.5468
1.388	36.3132
1.384	36.9833
1.38	37.7673
1.376	38.3105
1.372	38.6564
1.368	38.6035
1.364	38.4943
1.36	38.5553
1.356	38.6252
1.352	38.5651
1.348	38.5976
1.344	38.4582
1.34	38.4002
1.336	38.3079
1.332	38.215
1.328	38.0436
1.324	37.9998
1.32	38.1332
1.316	38.0747
1.312	37.937
1.308	37.8783
1.304	37.9099
1.3	37.8186
1.296	37.7361
1.292	37.6527
1.288	37.5539
1.284	37.5367
1.28	37.2525
1.276	37.1416
1.272	36.8827
1.268	36.8027
1.264	36.7788
1.26	36.6946
1.256	36.6938
1.252	36.5782
1.248	36.6017
1.244	36.5172
1.24	36.455
1.236	36.451
1.232	36.3927
1.228	36.3794
1.224	36.2854
1.22	36.3558
1.216	36.2998
1.212	36.2343
1.208	36.2768
1.204	36.257
1.2	36.2948
1.196	36.2059
1.192	36.1036
1.188	36.0101
1.184	35.988
1.18	36.0016
1.176	36.0016
1.172	35.8627
1.168	35.7201
1.164	35.725
1.16	35.4962
1.156	35.5044
1.152	35.4438
1.148	35.3717
1.144	35.273
1.14	35.139
1.136	35.1577
1.132	35.1207
1.128	35.0213
1.124	35.1301
1.12	35.1801
1.116	34.9809
1.112	34.8977
1.108	34.9851
1.104	34.7911
1.1	34.7718
1.096	34.6994
1.092	34.5615
1.088	34.6479
1.084	34.804
1.08	35.0116
1.076	34.8938
1.072	34.7464
1.068	34.7934
1.064	34.7567
1.06	34.7628
1.056	34.7719
1.052	34.9217
1.048	34.9797
1.044	34.8421
1.04	34.9646
1.036	35.0101
1.032	35.0449
1.028	34.9088
1.024	34.928
1.02	34.8563
1.016	34.7272
1.012	34.74
1.008	34.8212
1.004	35.1102
1	34.9669
0.996	34.8779
0.992	35.1331
0.988	34.5177
0.984	34.6705
0.98	34.7319
0.976	34.738
0.972	34.6855
0.968	34.6293
0.964	34.7896
0.96	34.6979
0.956	34.5045
0.952	34.5957
0.948	34.4406
0.944	34.479
0.94	34.3975
0.936	34.4922
0.932	34.3818
0.928	34.2859
0.924	34.3101
0.92	34.2151
0.916	34.2795
0.912	34.3287
0.908	33.9687
0.904	34.0504
0.9	34.2065
0.896	34.2144
0.892	34.1293
0.888	34.2097
0.884	34.2326
0.88	34.1844
0.876	34.094
0.872	34.0733
0.868	33.9128
0.864	34.0424
0.86	34.1134
0.856	33.8764
0.852	34.1294
0.848	34.1135
0.844	34.2078
0.84	33.979
0.836	34.1794
0.832	34.3264
0.828	34.5607
0.824	34.1891
0.82	34.1649
0.816	34.4312
0.812	34.664
0.808	34.5791
0.804	34.8309
0.8	35.0161
0.799	35.0112
0.798	35.0212
0.797	35.1212
0.796	35.0823
0.795	34.8344
0.794	34.7912
0.793	34.7165
0.792	34.7975
0.791	34.745
0.79	34.694
0.789	34.7569
0.788	34.8554
0.787	34.8803
0.786	34.8474
0.785	34.8159
0.784	34.7818
0.783	34.7436
0.782	34.7528
0.781	34.7171
0.78	34.824
0.779	34.8631
0.778	34.7344
0.777	34.7016
0.776	34.712
0.775	34.948
0.774	34.8991
0.773	34.9701
0.772	34.9066
0.771	34.6818
0.77	34.6765
0.769	34.6436
0.768	34.6345
0.767	34.6398
0.766	34.5886
0.765	34.6187
0.764	34.6646
0.763	34.8363
0.762	34.8363
0.761	34.7636
0.76	34.7373
0.759	34.6791
0.758	34.5447
0.757	34.6145
0.756	34.5171
0.755	34.5646
0.754	34.6251
0.753	34.6436
0.752	34.4311
0.751	34.5247
0.75	34.6277
0.749	34.6462
0.748	34.6515
0.747	34.5907
0.746	34.6972
0.745	34.5607
0.744	34.6642
0.743	34.6735
0.742	34.5369
0.741	34.4109
0.74	34.5608
0.739	34.5014
0.738	34.3696
0.737	34.4898
0.736	34.6447
0.735	34.5362
0.734	34.5541
0.733	34.5541
0.732	34.4562
0.731	34.4898
0.73	34.4199
0.729	34.3631
0.728	34.5112
0.727	34.5723
0.726	34.3839
0.725	34.42
0.724	34.4624
0.723	34.3777
0.722	34.5088
0.721	34.5088
0.72	34.6355
0.719	34.5245
0.718	34.4059
0.717	34.3841
0.716	34.4453
0.715	34.466
0.714	34.4121
0.713	34.2016
0.712	34.1372
0.711	34.1535
0.71	34.2626
0.709	34.35
0.708	34.3553
0.707	34.2959
0.706	34.294
0.705	34.318
0.704	34.2568
0.703	34.1052
0.702	34.2216
0.701	34.442
0.7	34.4655
0.699	34.2855
0.698	34.1391
0.697	34.1927
0.696	34.0676
0.695	34.0712
0.694	34.0654
0.693	33.991
0.692	34.0786
0.691	34.0654
0.69	34.0877
0.689	34.1166
0.688	34.0786
0.687	34.1757
0.686	34.2139
0.685	34.191
0.684	34.1414
0.683	34.0881
0.682	34.0171
0.681	33.9958
0.68	33.9613
0.679	33.9958
0.678	33.9862
0.677	33.8357
0.676	33.8322
0.675	33.948
0.674	33.9423
0.673	33.8639
0.672	33.8011
0.671	33.8071
0.67	33.8073
0.669	33.9553
0.668	33.8959
0.667	34.0317
0.666	33.9244
0.665	33.9019
0.664	33.9706
0.663	33.8674
0.662	33.833
0.661	33.7358
0.66	33.6797
0.659	33.6892
0.658	33.6674
0.657	33.7048
0.656	33.7425
0.655	33.6831
0.654	33.7142
0.653	33.6077
0.652	33.7676
0.651	33.6609
0.65	33.6233
0.649	33.5827
0.648	33.7581
0.647	33.6171
0.646	33.752
0.645	33.7459
0.644	33.6364
0.643	33.6235
0.642	33.6547
0.641	33.6359
0.64	33.4701
0.639	33.4638
0.638	33.3578
0.637	33.4484
0.636	33.417
0.635	33.3102
0.634	33.2851
0.633	33.3537
0.632	33.4105
0.631	33.5143
0.63	33.4923
0.629	33.464
0.628	33.4201
0.627	33.2971
0.626	33.2944
0.625	33.2761
0.624	33.2417
0.623	33.2234
0.622	33.1824
0.621	33.2383
0.62	33.1814
0.619	33.1973
0.618	33.2
0.617	33.1429
0.616	33.1616
0.615	33.1363
0.614	33.2243
0.613	33.1008
0.612	33.1296
0.611	33.2018
0.61	33.094
0.609	33.0129
0.608	32.9597
0.607	32.8973
0.606	32.9158
0.605	32.9698
0.604	32.7631
0.603	32.7778
0.602	32.6926
0.601	32.6986
0.6	32.6714
0.599	32.5586
0.598	32.4363
0.597	32.3919
0.596	32.3255
0.595	32.301
0.594	32.1215
0.593	32.1182
0.592	32.0602
0.591	31.8056
0.59	31.8713
0.589	31.7538
0.588	31.6737
0.587	31.702
0.586	31.6758
0.585	31.5502
0.584	31.5085
0.583	31.4587
0.582	31.3065
0.581	31.1369
0.58	31.1282
0.579	31.043
0.578	30.8294
0.577	30.8239
0.576	30.742
0.575	30.598
0.574	30.6468
0.573	30.4952
0.572	30.4292
0.571	30.3083
0.57	30.224
0.569	29.904
0.568	29.904
0.567	29.7746
0.566	29.7726
0.565	29.7571
0.564	29.5747
0.563	29.3838
0.562	29.3388
0.561	29.2219
0.56	29.2059
0.559	29.0262
0.558	28.4162
0.557	28.3145
0.556	28.4046
0.555	28.2018
0.554	28.2018
0.553	28.1487
0.552	28.0485
0.551	27.9298
0.55	27.8548
0.549	27.747
0.548	27.7981
0.547	27.7423
0.546	27.7636
0.545	27.675
0.544	27.5767
0.543	27.3875
0.542	27.3793
0.541	27.2558
0.54	27.2413
0.539	27.1428
0.538	27.2102
0.537	27.2135
0.536	27.0406
0.535	26.9497
0.534	26.916
0.533	26.8814
0.532	26.964
0.531	26.8661
0.53	26.5901
0.529	26.5209
0.528	26.4379
0.527	26.3408
0.526	26.3893
0.525	26.28
0.524	26.2525
0.523	26.0933
0.522	26.1883
0.521	26.1878
0.52	26.1179
0.519	25.9731
0.518	25.958
0.517	25.7941
0.516	25.9112
0.515	25.8282
0.514	25.6972
0.513	25.607
0.512	25.6537
0.511	25.6751
0.51	25.7149
0.509	25.5974
0.508	25.4912
0.507	25.3337
0.506	25.1636
0.505	25.2375
0.504	25.2379
0.503	25.1397
0.502	25.1048
0.501	25.1866
0.5	24.981
0.499	24.8702
0.498	24.7928
0.497	24.7766
0.496	24.7095
0.495	24.7226
0.494	24.6848
0.493	24.6075
0.492	24.6226
0.491	24.5074
0.49	24.3142
0.489	24.3383
0.488	24.1894
0.487	24.211
0.486	24.2093
0.485	24.3221
0.484	24.1241
0.483	24.0371
0.482	23.9354
0.481	23.8739
0.48	23.7804
0.479	23.8453
0.478	23.7219
0.477	23.5927
0.476	23.5693
0.475	23.5401
0.474	23.5666
0.473	23.5316
0.472	23.428
0.471	23.4813
0.47	23.534
0.469	23.4192
0.468	23.3575
0.467	23.1962
0.466	23.1667
0.465	22.9761
0.464	22.8674
0.463	22.9321
0.462	22.865
0.461	22.8936
0.46	22.8456
0.459	22.775
0.458	22.7979
0.457	22.8439
0.456	22.7176
0.455	22.8096
0.454	22.7904
0.453	22.6341
0.452	22.701
0.451	22.5423
0.45	22.5528
0.449	22.3749
0.448	22.3749
0.447	22.2018
0.446	22.1765
0.445	22.0063
0.444	22.0569
0.443	21.9185
0.442	21.8374
0.441	21.6947
0.44	21.7311
0.439	21.7195
0.438	21.6763
0.437	21.6339
0.436	21.4877
0.435	21.4877
0.434	21.4688
0.433	21.3551
0.432	21.2973
0.431	21.1542
0.43	21.0611
0.429	20.8217
0.428	20.8987
0.427	20.7775
0.426	20.6824
0.425	20.6133
0.424	20.5223
0.423	20.3991
0.422	20.3935
0.421	20.403
0.42	20.2435
0.419	20.2207
0.418	20.2768
0.417	20.1833
0.416	20.1276
0.415	19.9583
0.414	19.7987
0.413	19.8003
0.412	19.7098
0.411	19.7172
0.41	19.6444
0.409	19.5397
0.408	19.5937
0.407	19.5393
0.406	19.5068
0.405	19.2506
0.404	19.3445
0.403	19.2954
0.402	19.1905
0.401	19.0756
0.4	19.1373
