Name: Green Slate
Type:  Rocks
Class:  Metamorphic 
Subclass: Slate
Particle Size:  500-1500 Micrometer
Sample No.:   slate2.doc
Owner:  JHU
Wavelength Range:  All
Origin:  Sample No. 461, The Hunt and Salisbury Collection at the U.S. 
Geological Survey, Denver, Co.
Description: This is a medium-grained sample dissected by thin veins.  
Microscopically it consists of about equal amounts of actinolite and recrystallized 
albite lathes.  The groundmass also consists of some chlorite, and carbonate, 
which is especially prominent in the veins, along with scattered pyrite.  Modes 
were 59.3% amphibole, 25.7% albite, 10.8% chlorite, 3% calcite and 1% pyrite.

Measurement:  Directional (10 Degree) Hemispherical Reflectance
First Column:  X
Second Column:  Y  
X Units:  Wavelength (micrometers)
Y Units:  Reflectance (percent)
First X Value: 14.0112	
Last X Value:  0.4
Number of X Values: 2844
Additional Information:  None

14.0112	2.3043
13.9734	2.3368
13.9359	2.3624
13.8985	2.3799
13.8614	2.3889
13.8244	2.3911
13.7876	2.3909
13.7511	2.3878
13.7147	2.3856
13.6785	2.3889
13.6425	2.4017
13.6067	2.422
13.5711	2.448
13.5356	2.4763
13.5004	2.5028
13.4653	2.5244
13.4304	2.5455
13.3957	2.5705
13.3612	2.6029
13.3269	2.6412
13.2927	2.6782
13.2587	2.7022
13.2249	2.7015
13.1912	2.6689
13.1577	2.6034
13.1244	2.5064
13.0913	2.3888
13.0583	2.2648
13.0255	2.1495
12.9929	2.0566
12.9604	2
12.9281	1.9904
12.8959	2.0317
12.8639	2.1143
12.8321	2.2174
12.8004	2.3177
12.7688	2.3962
12.7375	2.4426
12.7063	2.4572
12.6752	2.4522
12.6443	2.4447
12.6135	2.4402
12.5829	2.4347
12.5524	2.4244
12.5221	2.4115
12.4919	2.4005
12.4619	2.3987
12.432	2.4153
12.4023	2.4536
12.3727	2.5071
12.3432	2.5658
12.3139	2.6206
12.2847	2.6713
12.2557	2.7225
12.2268	2.7805
12.198	2.8447
12.1694	2.9086
12.1409	2.9616
12.1125	2.9941
12.0843	3.0017
12.0562	2.9921
12.0282	2.983
12.0003	2.9905
11.9726	3.0223
11.945	3.0768
11.9176	3.1438
11.8903	3.2074
11.8631	3.2534
11.836	3.2761
11.809	3.2773
11.7822	3.2657
11.7555	3.2544
11.7289	3.2562
11.7024	3.2788
11.676	3.3221
11.6498	3.379
11.6237	3.4383
11.5977	3.4884
11.5718	3.5264
11.546	3.5575
11.5203	3.5915
11.4948	3.6396
11.4694	3.7077
11.444	3.7908
11.4188	3.8767
11.3937	3.9547
11.3688	4.0188
11.3439	4.0686
11.3191	4.1116
11.2944	4.1585
11.2699	4.215
11.2455	4.2784
11.2211	4.3396
11.1969	4.3911
11.1727	4.4265
11.1487	4.4427
11.1248	4.4447
11.101	4.4406
11.0773	4.438
11.0536	4.4418
11.0301	4.4521
11.0067	4.4698
10.9834	4.4961
10.9602	4.5279
10.937	4.5636
10.914	4.6029
10.8911	4.6464
10.8682	4.6923
10.8455	4.7349
10.8229	4.7727
10.8003	4.8115
10.7779	4.8529
10.7555	4.8988
10.7332	4.9541
10.7111	5.0249
10.689	5.1122
10.667	5.2141
10.6451	5.3323
10.6233	5.4687
10.6015	5.6166
10.5799	5.7647
10.5584	5.9018
10.5369	6.0199
10.5155	6.1176
10.4942	6.1994
10.473	6.2759
10.4519	6.3569
10.4309	6.4439
10.4099	6.5365
10.3891	6.6288
10.3683	6.7153
10.3476	6.7956
10.327	6.872
10.3065	6.9454
10.286	7.0167
10.2656	7.0878
10.2454	7.1634
10.2251	7.2438
10.205	7.3268
10.185	7.4114
10.165	7.4947
10.1451	7.5696
10.1253	7.6316
10.1056	7.6797
10.0859	7.716
10.0663	7.7383
10.0468	7.7426
10.0274	7.7288
10.008	7.6996
9.9887	7.6584
9.9695	7.6124
9.9504	7.5668
9.9313	7.5196
9.9123	7.4615
9.8934	7.3806
9.8746	7.2689
9.8558	7.1289
9.8371	6.9729
9.8185	6.8238
9.7999	6.7076
9.7814	6.642
9.763	6.6344
9.7447	6.6812
9.7264	6.7674
9.7082	6.8726
9.69	6.9762
9.6719	7.0635
9.6539	7.1287
9.636	7.1667
9.6181	7.1758
9.6003	7.1565
9.5825	7.1055
9.5649	7.0203
9.5472	6.9045
9.5297	6.77
9.5122	6.6296
9.4948	6.4949
9.4774	6.3733
9.4601	6.2635
9.4429	6.1577
9.4257	6.0487
9.4086	5.9381
9.3916	5.8326
9.3746	5.7388
9.3577	5.6644
9.3408	5.6106
9.324	5.5685
9.3073	5.5256
9.2906	5.4704
9.274	5.3957
9.2574	5.2986
9.2409	5.1804
9.2245	5.0452
9.2081	4.8988
9.1918	4.7478
9.1755	4.6026
9.1593	4.4712
9.1431	4.3605
9.127	4.2736
9.111	4.209
9.095	4.1619
9.0791	4.1279
9.0632	4.1076
9.0474	4.1049
9.0316	4.119
9.0159	4.1449
9.0003	4.175
8.9847	4.1999
8.9691	4.2116
8.9536	4.2105
8.9382	4.2083
8.9228	4.2196
8.9075	4.2518
8.8922	4.3071
8.877	4.3844
8.8618	4.4774
8.8467	4.5768
8.8316	4.6766
8.8166	4.7732
8.8016	4.8593
8.7867	4.9234
8.7718	4.9574
8.757	4.9606
8.7422	4.9352
8.7275	4.8876
8.7129	4.8308
8.6982	4.7758
8.6837	4.7254
8.6692	4.6779
8.6547	4.6301
8.6403	4.5782
8.6259	4.5186
8.6116	4.4528
8.5973	4.3875
8.583	4.3289
8.5688	4.2812
8.5547	4.2475
8.5406	4.2267
8.5266	4.2183
8.5126	4.2214
8.4986	4.2327
8.4847	4.2475
8.4708	4.2605
8.457	4.2674
8.4432	4.2676
8.4295	4.2643
8.4158	4.2646
8.4022	4.2722
8.3886	4.2812
8.375	4.2805
8.3615	4.2598
8.3481	4.2145
8.3347	4.1487
8.3213	4.0741
8.3079	4.0054
8.2946	3.952
8.2814	3.9112
8.2682	3.8724
8.255	3.8245
8.2419	3.7557
8.2288	3.6573
8.2158	3.5296
8.2028	3.3819
8.1898	3.2278
8.1769	3.0814
8.164	2.9541
8.1512	2.8539
8.1384	2.7783
8.1256	2.7141
8.1129	2.6495
8.1002	2.5765
8.0876	2.4943
8.075	2.4079
8.0624	2.3265
8.0499	2.2613
8.0374	2.2146
8.025	2.1813
8.0126	2.1572
8.0002	2.1371
7.9879	2.1174
7.9756	2.0947
7.9634	2.0684
7.9512	2.0397
7.939	2.0086
7.9268	1.9768
7.9147	1.9482
7.9027	1.9253
7.8906	1.9059
7.8786	1.8861
7.8667	1.8624
7.8548	1.836
7.8429	1.8103
7.831	1.791
7.8192	1.7844
7.8075	1.7894
7.7957	1.7987
7.784	1.805
7.7723	1.8033
7.7607	1.7958
7.7491	1.7887
7.7375	1.7897
7.726	1.8038
7.7145	1.8257
7.7031	1.844
7.6916	1.8461
7.6802	1.826
7.6689	1.7875
7.6575	1.7406
7.6462	1.6997
7.635	1.6767
7.6238	1.6758
7.6126	1.6937
7.6014	1.7226
7.5903	1.7542
7.5792	1.7827
7.5681	1.8045
7.5571	1.8189
7.5461	1.8251
7.5351	1.8241
7.5242	1.8184
7.5133	1.8095
7.5024	1.7973
7.4916	1.7824
7.4807	1.7664
7.47	1.7514
7.4592	1.7379
7.4485	1.7284
7.4378	1.7258
7.4272	1.7318
7.4165	1.7459
7.4059	1.7666
7.3954	1.7918
7.3848	1.8167
7.3743	1.8353
7.3639	1.8428
7.3534	1.8385
7.343	1.8257
7.3326	1.8111
7.3223	1.8013
7.3119	1.8007
7.3016	1.8105
7.2914	1.8265
7.2811	1.8428
7.2709	1.8545
7.2607	1.8602
7.2506	1.8599
7.2404	1.8559
7.2303	1.8518
7.2203	1.8523
7.2102	1.8597
7.2002	1.8758
7.1902	1.9006
7.1803	1.9315
7.1703	1.9628
7.1604	1.9902
7.1506	2.0119
7.1407	2.0294
7.1309	2.044
7.1211	2.0603
7.1113	2.0818
7.1016	2.1081
7.0919	2.1366
7.0822	2.1632
7.0725	2.1871
7.0629	2.2074
7.0533	2.2236
7.0437	2.2368
7.0341	2.25
7.0246	2.2651
7.0151	2.2802
7.0056	2.2921
6.9962	2.2988
6.9867	2.2986
6.9773	2.2897
6.9679	2.2727
6.9586	2.2536
6.9493	2.237
6.94	2.2244
6.9307	2.2143
6.9214	2.2074
6.9122	2.2052
6.903	2.2062
6.8938	2.2098
6.8847	2.2172
6.8755	2.2282
6.8664	2.2402
6.8573	2.2495
6.8483	2.255
6.8393	2.256
6.8302	2.2512
6.8213	2.2395
6.8123	2.2244
6.8034	2.2098
6.7944	2.1987
6.7855	2.1935
6.7767	2.1962
6.7678	2.2062
6.759	2.2206
6.7502	2.2366
6.7414	2.2531
6.7327	2.2691
6.7239	2.2835
6.7152	2.2952
6.7065	2.3048
6.6979	2.3124
6.6892	2.3182
6.6806	2.3227
6.672	2.3268
6.6634	2.329
6.6549	2.328
6.6464	2.3232
6.6378	2.3167
6.6294	2.3107
6.6209	2.3074
6.6124	2.3093
6.604	2.3157
6.5956	2.3237
6.5872	2.3292
6.5789	2.3294
6.5705	2.3253
6.5622	2.3179
6.5539	2.3071
6.5456	2.295
6.5374	2.2827
6.5292	2.2711
6.5209	2.2596
6.5128	2.2502
6.5046	2.2478
6.4964	2.2523
6.4883	2.2605
6.4802	2.2691
6.4721	2.2754
6.464	2.276
6.456	2.2684
6.448	2.2553
6.4399	2.2399
6.432	2.2227
6.424	2.204
6.416	2.1849
6.4081	2.1655
6.4002	2.1444
6.3923	2.122
6.3844	2.0999
6.3766	2.0782
6.3687	2.0566
6.3609	2.0382
6.3531	2.0246
6.3454	2.0146
6.3376	2.0057
6.3299	1.997
6.3221	1.9875
6.3144	1.9748
6.3068	1.9624
6.2991	1.954
6.2914	1.9521
6.2838	1.9555
6.2762	1.9607
6.2686	1.9638
6.2611	1.9612
6.2535	1.9504
6.246	1.9336
6.2385	1.915
6.231	1.8994
6.2235	1.8908
6.216	1.8899
6.2086	1.8966
6.2011	1.91
6.1937	1.927
6.1863	1.9434
6.179	1.9562
6.1716	1.9638
6.1643	1.9662
6.157	1.964
6.1496	1.9619
6.1424	1.9643
6.1351	1.9722
6.1278	1.9846
6.1206	1.9987
6.1134	2.0121
6.1062	2.0224
6.099	2.0284
6.0918	2.0317
6.0847	2.0339
6.0776	2.037
6.0704	2.0408
6.0633	2.0458
6.0563	2.0543
6.0492	2.0657
6.0421	2.0794
6.0351	2.0928
6.0281	2.1054
6.0211	2.1157
6.0141	2.1205
6.0071	2.1195
6.0002	2.115
5.9932	2.1064
5.9863	2.0951
5.9794	2.0842
5.9725	2.0777
5.9657	2.0772
5.9588	2.0808
5.952	2.0878
5.9451	2.0956
5.9383	2.0999
5.9315	2.0999
5.9247	2.0988
5.918	2.1009
5.9112	2.1086
5.9045	2.1225
5.8978	2.1423
5.8911	2.1638
5.8844	2.1813
5.8777	2.1919
5.8711	2.1962
5.8644	2.1969
5.8578	2.1964
5.8512	2.198
5.8446	2.2045
5.838	2.2153
5.8314	2.227
5.8249	2.2368
5.8184	2.2437
5.8118	2.2466
5.8053	2.2462
5.7988	2.2452
5.7923	2.2483
5.7859	2.2578
5.7794	2.2734
5.773	2.2925
5.7666	2.3107
5.7602	2.3232
5.7538	2.327
5.7474	2.3242
5.741	2.3187
5.7347	2.3144
5.7283	2.3119
5.722	2.3105
5.7157	2.3079
5.7094	2.3019
5.7031	2.2928
5.6969	2.282
5.6906	2.2727
5.6844	2.2669
5.6782	2.2664
5.6719	2.2727
5.6657	2.2865
5.6596	2.3079
5.6534	2.3325
5.6472	2.3541
5.6411	2.3684
5.6349	2.374
5.6288	2.373
5.6227	2.3718
5.6166	2.3763
5.6106	2.3888
5.6045	2.4055
5.5984	2.4189
5.5924	2.4258
5.5864	2.4251
5.5804	2.4198
5.5744	2.416
5.5684	2.4208
5.5624	2.4374
5.5564	2.4622
5.5505	2.4895
5.5445	2.5141
5.5386	2.5309
5.5327	2.5371
5.5268	2.5371
5.5209	2.538
5.5151	2.5453
5.5092	2.5605
5.5033	2.5835
5.4975	2.6098
5.4917	2.6335
5.4859	2.651
5.4801	2.6651
5.4743	2.6784
5.4685	2.6926
5.4628	2.7093
5.457	2.7277
5.4513	2.745
5.4455	2.7584
5.4398	2.7684
5.4341	2.7773
5.4284	2.7847
5.4228	2.7916
5.4171	2.7991
5.4114	2.8062
5.4058	2.812
5.4002	2.8165
5.3945	2.8201
5.3889	2.8215
5.3833	2.8213
5.3778	2.823
5.3722	2.8288
5.3666	2.8397
5.3611	2.8555
5.3555	2.8739
5.35	2.8887
5.3445	2.895
5.339	2.8943
5.3335	2.8907
5.328	2.8887
5.3225	2.8935
5.3171	2.9091
5.3116	2.9337
5.3062	2.9611
5.3008	2.985
5.2954	3.0022
5.29	3.0094
5.2846	3.0061
5.2792	2.9958
5.2738	2.9845
5.2684	2.9752
5.2631	2.9699
5.2578	2.9711
5.2524	2.9797
5.2471	2.9953
5.2418	3.0185
5.2365	3.0496
5.2312	3.0843
5.226	3.1166
5.2207	3.1415
5.2154	3.1558
5.2102	3.1596
5.205	3.157
5.1998	3.1551
5.1945	3.1594
5.1893	3.1719
5.1842	3.1908
5.179	3.2125
5.1738	3.2321
5.1686	3.2458
5.1635	3.2517
5.1584	3.2522
5.1532	3.2506
5.1481	3.2508
5.143	3.257
5.1379	3.2707
5.1328	3.2924
5.1277	3.3195
5.1227	3.348
5.1176	3.374
5.1126	3.3941
5.1075	3.4071
5.1025	3.4142
5.0975	3.4194
5.0925	3.4264
5.0875	3.4383
5.0825	3.4546
5.0775	3.4723
5.0726	3.4876
5.0676	3.4989
5.0627	3.507
5.0577	3.5133
5.0528	3.5216
5.0479	3.5355
5.043	3.5549
5.038	3.5776
5.0332	3.5998
5.0283	3.6197
5.0234	3.6355
5.0185	3.647
5.0137	3.6571
5.0088	3.669
5.004	3.6853
4.9992	3.7056
4.9944	3.7276
4.9896	3.7484
4.9848	3.7659
4.98	3.7798
4.9752	3.792
4.9704	3.804
4.9657	3.8186
4.9609	3.837
4.9562	3.8599
4.9514	3.8889
4.9467	3.9245
4.942	3.9673
4.9373	4.0143
4.9326	4.0588
4.9279	4.0956
4.9232	4.1212
4.9186	4.1363
4.9139	4.1444
4.9092	4.1499
4.9046	4.1578
4.9	4.1707
4.8953	4.1877
4.8907	4.209
4.8861	4.2351
4.8815	4.2669
4.8769	4.3033
4.8723	4.3423
4.8678	4.383
4.8632	4.4243
4.8586	4.466
4.8541	4.5093
4.8495	4.5554
4.845	4.6031
4.8405	4.6485
4.836	4.688
4.8315	4.7194
4.827	4.743
4.8225	4.7631
4.818	4.7856
4.8135	4.8141
4.809	4.8497
4.8046	4.8912
4.8001	4.934
4.7957	4.9747
4.7913	5.0115
4.7868	5.0464
4.7824	5.0821
4.778	5.1201
4.7736	5.1636
4.7692	5.2144
4.7648	5.2732
4.7605	5.339
4.7561	5.4111
4.7517	5.4874
4.7474	5.5651
4.7431	5.6417
4.7387	5.7178
4.7344	5.7953
4.7301	5.8757
4.7258	5.9577
4.7215	6.0395
4.7172	6.1182
4.7129	6.1912
4.7086	6.259
4.7043	6.3245
4.7	6.3922
4.6958	6.4638
4.6915	6.5363
4.6873	6.6059
4.6831	6.6686
4.6788	6.7219
4.6746	6.7697
4.6704	6.82
4.6662	6.882
4.662	6.96
4.6578	7.0511
4.6536	7.1473
4.6495	7.2385
4.6453	7.316
4.6411	7.3777
4.637	7.4292
4.6328	7.4811
4.6287	7.5435
4.6246	7.6196
4.6205	7.7094
4.6163	7.8093
4.6122	7.9137
4.6081	8.0173
4.604	8.1192
4.6	8.223
4.5959	8.3322
4.5918	8.4472
4.5877	8.5692
4.5837	8.6977
4.5796	8.8298
4.5756	8.9606
4.5716	9.087
4.5675	9.2083
4.5635	9.3248
4.5595	9.437
4.5555	9.5447
4.5515	9.6483
4.5475	9.7492
4.5435	9.8466
4.5395	9.9416
4.5356	10.0359
4.5316	10.1318
4.5276	10.2285
4.5237	10.3232
4.5197	10.4149
4.5158	10.5027
4.5119	10.5886
4.508	10.6754
4.504	10.7656
4.5001	10.8592
4.4962	10.9523
4.4923	11.0403
4.4884	11.1205
4.4846	11.1937
4.4807	11.2649
4.4768	11.3406
4.473	11.4257
4.4691	11.5236
4.4652	11.6334
4.4614	11.7514
4.4576	11.8719
4.4537	11.9906
4.4499	12.1031
4.4461	12.2074
4.4423	12.3031
4.4385	12.3926
4.4347	12.4789
4.4309	12.5639
4.4271	12.6491
4.4233	12.7362
4.4196	12.8258
4.4158	12.9199
4.412	13.0194
4.4083	13.1259
4.4045	13.2383
4.4008	13.3503
4.3971	13.4556
4.3934	13.5501
4.3896	13.6314
4.3859	13.7011
4.3822	13.7657
4.3785	13.8346
4.3748	13.9131
4.3711	14.0016
4.3674	14.0982
4.3638	14.198
4.3601	14.2925
4.3564	14.3755
4.3528	14.4476
4.3491	14.5121
4.3455	14.5765
4.3418	14.6478
4.3382	14.7313
4.3346	14.827
4.331	14.9282
4.3273	15.027
4.3237	15.1158
4.3201	15.1914
4.3165	15.2558
4.3129	15.3147
4.3094	15.3723
4.3058	15.4314
4.3022	15.4928
4.2986	15.5549
4.2951	15.6158
4.2915	15.6776
4.288	15.7431
4.2844	15.8142
4.2809	15.8879
4.2774	15.9606
4.2738	16.0303
4.2703	16.0937
4.2668	16.1516
4.2633	16.209
4.2598	16.2711
4.2563	16.3391
4.2528	16.4092
4.2493	16.4781
4.2458	16.5444
4.2424	16.6059
4.2389	16.664
4.2354	16.7224
4.232	16.7839
4.2285	16.8473
4.2251	16.9112
4.2216	16.9756
4.2182	17.0411
4.2148	17.1079
4.2113	17.1753
4.2079	17.2433
4.2045	17.3097
4.2011	17.3729
4.1977	17.432
4.1943	17.4866
4.1909	17.5346
4.1875	17.5741
4.1841	17.6053
4.1808	17.6287
4.1774	17.6507
4.174	17.6789
4.1707	17.7194
4.1673	17.774
4.164	17.8369
4.1606	17.9005
4.1573	17.9572
4.154	18.0019
4.1506	18.0361
4.1473	18.0651
4.144	18.096
4.1407	18.1335
4.1374	18.1768
4.1341	18.2225
4.1308	18.2673
4.1275	18.3068
4.1242	18.3422
4.1209	18.3774
4.1177	18.4178
4.1144	18.4663
4.1111	18.5193
4.1079	18.5707
4.1046	18.6149
4.1014	18.6472
4.0981	18.6683
4.0949	18.6829
4.0917	18.6979
4.0884	18.7163
4.0852	18.7364
4.082	18.7545
4.0788	18.7659
4.0756	18.7693
4.0724	18.7673
4.0692	18.7654
4.066	18.7697
4.0628	18.7812
4.0596	18.797
4.0565	18.8099
4.0533	18.8137
4.0501	18.803
4.047	18.7754
4.0438	18.7329
4.0406	18.6783
4.0375	18.6142
4.0344	18.5407
4.0312	18.4587
4.0281	18.3716
4.025	18.2799
4.0218	18.1823
4.0187	18.0769
4.0156	17.9579
4.0125	17.8173
4.0094	17.6481
4.0063	17.4478
4.0032	17.2215
4.0001	16.9774
3.997	16.7281
3.994	16.491
3.9909	16.2836
3.9878	16.1197
3.9847	16.0092
3.9817	15.9541
3.9786	15.9518
3.9756	15.9929
3.9725	16.0671
3.9695	16.1687
3.9665	16.296
3.9634	16.4479
3.9604	16.6245
3.9574	16.8229
3.9544	17.0392
3.9513	17.2674
3.9483	17.4995
3.9453	17.7268
3.9423	17.9395
3.9393	18.1252
3.9363	18.2723
3.9333	18.3752
3.9304	18.4369
3.9274	18.4702
3.9244	18.4914
3.9214	18.5159
3.9185	18.5532
3.9155	18.6025
3.9126	18.6566
3.9096	18.7047
3.9067	18.7391
3.9037	18.759
3.9008	18.7676
3.8979	18.7711
3.8949	18.7752
3.892	18.7829
3.8891	18.792
3.8862	18.8001
3.8833	18.8061
3.8804	18.8126
3.8775	18.8217
3.8746	18.8363
3.8717	18.8561
3.8688	18.8762
3.8659	18.8896
3.863	18.8929
3.8601	18.8884
3.8573	18.881
3.8544	18.8765
3.8515	18.8808
3.8487	18.897
3.8458	18.9226
3.843	18.9542
3.8401	18.992
3.8373	19.038
3.8344	19.0903
3.8316	19.1477
3.8288	19.209
3.8259	19.2719
3.8231	19.3323
3.8203	19.3877
3.8175	19.4402
3.8147	19.4906
3.8119	19.5383
3.8091	19.582
3.8063	19.6224
3.8035	19.6603
3.8007	19.6966
3.7979	19.7358
3.7951	19.7825
3.7924	19.8361
3.7896	19.8918
3.7868	19.9406
3.7841	19.9732
3.7813	19.9837
3.7785	19.9717
3.7758	19.9438
3.773	19.9105
3.7703	19.8811
3.7676	19.861
3.7648	19.851
3.7621	19.8478
3.7594	19.8457
3.7566	19.8389
3.7539	19.8244
3.7512	19.8019
3.7485	19.7732
3.7458	19.7426
3.7431	19.7139
3.7404	19.6887
3.7377	19.6672
3.735	19.6468
3.7323	19.6261
3.7296	19.6045
3.7269	19.5829
3.7242	19.5638
3.7216	19.5476
3.7189	19.5325
3.7162	19.5162
3.7136	19.4961
3.7109	19.4701
3.7083	19.438
3.7056	19.403
3.703	19.3693
3.7003	19.3418
3.6977	19.3241
3.695	19.3185
3.6924	19.3243
3.6898	19.3356
3.6872	19.3451
3.6845	19.3459
3.6819	19.333
3.6793	19.3064
3.6767	19.2697
3.6741	19.2299
3.6715	19.1913
3.6689	19.1559
3.6663	19.1231
3.6637	19.0901
3.6611	19.0539
3.6585	19.0136
3.656	18.97
3.6534	18.9266
3.6508	18.8872
3.6482	18.8537
3.6457	18.8264
3.6431	18.8025
3.6406	18.7789
3.638	18.7513
3.6355	18.7166
3.6329	18.6762
3.6304	18.6333
3.6278	18.5913
3.6253	18.5508
3.6227	18.5118
3.6202	18.4738
3.6177	18.4326
3.6152	18.3857
3.6127	18.3352
3.6101	18.2829
3.6076	18.2304
3.6051	18.1764
3.6026	18.1199
3.6001	18.0596
3.5976	17.9943
3.5951	17.9266
3.5926	17.8615
3.5901	17.8029
3.5876	17.7509
3.5852	17.7012
3.5827	17.6476
3.5802	17.5847
3.5777	17.5122
3.5753	17.4349
3.5728	17.36
3.5704	17.294
3.5679	17.2378
3.5654	17.1887
3.563	17.1426
3.5605	17.0956
3.5581	17.0471
3.5557	16.9978
3.5532	16.9507
3.5508	16.9059
3.5484	16.8612
3.5459	16.8147
3.5435	16.7636
3.5411	16.7016
3.5387	16.6238
3.5363	16.5289
3.5338	16.4193
3.5314	16.2994
3.529	16.1764
3.5266	16.0578
3.5242	15.9451
3.5218	15.8359
3.5195	15.7285
3.5171	15.6235
3.5147	15.522
3.5123	15.4266
3.5099	15.3381
3.5075	15.2531
3.5052	15.1638
3.5028	15.0667
3.5004	14.9638
3.4981	14.8595
3.4957	14.7581
3.4934	14.6633
3.491	14.577
3.4887	14.4957
3.4863	14.4135
3.484	14.3296
3.4816	14.248
3.4793	14.1738
3.477	14.1136
3.4746	14.0753
3.4723	14.0686
3.47	14.0944
3.4677	14.1423
3.4653	14.1966
3.463	14.2399
3.4607	14.2559
3.4584	14.2363
3.4561	14.1839
3.4538	14.1143
3.4515	14.0442
3.4492	13.9824
3.4469	13.9327
3.4446	13.892
3.4423	13.8535
3.44	13.81
3.4378	13.7577
3.4355	13.6999
3.4332	13.6393
3.4309	13.5761
3.4287	13.5075
3.4264	13.4317
3.4241	13.3487
3.4219	13.262
3.4196	13.1795
3.4174	13.1097
3.4151	13.0577
3.4129	13.0223
3.4106	12.9938
3.4084	12.9603
3.4061	12.9127
3.4039	12.8496
3.4017	12.7752
3.3994	12.6974
3.3972	12.6263
3.395	12.5679
3.3928	12.5203
3.3906	12.4768
3.3883	12.4294
3.3861	12.3732
3.3839	12.305
3.3817	12.2261
3.3795	12.1428
3.3773	12.0636
3.3751	11.9949
3.3729	11.9385
3.3707	11.8918
3.3685	11.8485
3.3663	11.799
3.3641	11.7361
3.362	11.6576
3.3598	11.5655
3.3576	11.4647
3.3554	11.3633
3.3533	11.2714
3.3511	11.1975
3.3489	11.1458
3.3468	11.1193
3.3446	11.1158
3.3425	11.1269
3.3403	11.1394
3.3382	11.1437
3.336	11.1331
3.3339	11.1042
3.3317	11.057
3.3296	10.9977
3.3274	10.9345
3.3253	10.873
3.3232	10.8173
3.321	10.7699
3.3189	10.7274
3.3168	10.6831
3.3147	10.63
3.3126	10.5668
3.3104	10.4965
3.3083	10.423
3.3062	10.3536
3.3041	10.2945
3.302	10.2445
3.2999	10.2002
3.2978	10.1562
3.2957	10.1091
3.2936	10.056
3.2915	9.9947
3.2894	9.9287
3.2874	9.8596
3.2853	9.7878
3.2832	9.7157
3.2811	9.6466
3.279	9.5822
3.277	9.5243
3.2749	9.4734
3.2728	9.4267
3.2708	9.3772
3.2687	9.3186
3.2666	9.2501
3.2646	9.1739
3.2625	9.0927
3.2605	9.0126
3.2584	8.9384
3.2564	8.8695
3.2543	8.8016
3.2523	8.7343
3.2503	8.6706
3.2482	8.612
3.2462	8.5592
3.2442	8.5108
3.2421	8.4651
3.2401	8.4154
3.2381	8.3539
3.2361	8.2774
3.234	8.1869
3.232	8.0874
3.23	7.9852
3.228	7.8871
3.226	7.8007
3.224	7.7266
3.222	7.6598
3.22	7.5962
3.218	7.5299
3.216	7.4567
3.214	7.3749
3.212	7.2866
3.21	7.1981
3.208	7.1122
3.206	7.0325
3.204	6.9638
3.2021	6.9062
3.2001	6.8554
3.1981	6.8069
3.1961	6.7559
3.1942	6.7004
3.1922	6.6379
3.1902	6.571
3.1883	6.5049
3.1863	6.4427
3.1844	6.386
3.1824	6.3343
3.1805	6.2867
3.1785	6.242
3.1766	6.1989
3.1746	6.1566
3.1727	6.113
3.1707	6.0659
3.1688	6.0138
3.1669	5.9563
3.1649	5.8943
3.163	5.8319
3.1611	5.7723
3.1591	5.717
3.1572	5.6656
3.1553	5.6166
3.1534	5.5699
3.1515	5.5235
3.1495	5.4757
3.1476	5.427
3.1457	5.3773
3.1438	5.3268
3.1419	5.278
3.14	5.2347
3.1381	5.1991
3.1362	5.1689
3.1343	5.1402
3.1324	5.107
3.1305	5.0632
3.1286	5.0064
3.1268	4.9404
3.1249	4.872
3.123	4.8089
3.1211	4.7562
3.1192	4.7172
3.1174	4.6899
3.1155	4.6681
3.1136	4.6466
3.1117	4.623
3.1099	4.5954
3.108	4.5641
3.1061	4.5289
3.1043	4.492
3.1024	4.4543
3.1006	4.417
3.0987	4.3831
3.0969	4.3574
3.095	4.3416
3.0932	4.3335
3.0913	4.3284
3.0895	4.321
3.0876	4.3054
3.0858	4.2796
3.084	4.2437
3.0821	4.2018
3.0803	4.1597
3.0785	4.1215
3.0766	4.092
3.0748	4.0736
3.073	4.0659
3.0712	4.0647
3.0694	4.0624
3.0675	4.0538
3.0657	4.0384
3.0639	4.0183
3.0621	3.999
3.0603	3.9874
3.0585	3.9851
3.0567	3.9849
3.0549	3.9771
3.0531	3.9568
3.0513	3.9243
3.0495	3.8817
3.0477	3.8387
3.0459	3.8058
3.0441	3.7882
3.0423	3.7836
3.0406	3.7889
3.0388	3.8018
3.037	3.8161
3.0352	3.8247
3.0334	3.8252
3.0317	3.8169
3.0299	3.7975
3.0281	3.7673
3.0264	3.7313
3.0246	3.6941
3.0228	3.658
3.0211	3.6259
3.0193	3.6037
3.0176	3.5939
3.0158	3.5972
3.014	3.6118
3.0123	3.6327
3.0105	3.653
3.0088	3.6642
3.007	3.6614
3.0053	3.6463
3.0036	3.6247
3.0018	3.6028
3.0001	3.5839
2.9984	3.5688
2.9966	3.5563
2.9949	3.5419
2.9932	3.524
2.9914	3.5049
2.9897	3.4886
2.988	3.4783
2.9863	3.474
2.9845	3.4743
2.9828	3.4771
2.9811	3.4803
2.9794	3.4838
2.9777	3.4881
2.976	3.4919
2.9743	3.4914
2.9726	3.4803
2.9709	3.4551
2.9692	3.4176
2.9675	3.3759
2.9658	3.3407
2.9641	3.3218
2.9624	3.3223
2.9607	3.3379
2.959	3.3563
2.9573	3.3678
2.9556	3.3673
2.9539	3.3565
2.9523	3.3417
2.9506	3.3314
2.9489	3.3312
2.9472	3.3419
2.9455	3.3596
2.9439	3.379
2.9422	3.395
2.9405	3.4053
2.9389	3.4106
2.9372	3.4144
2.9355	3.4207
2.9339	3.4326
2.9322	3.4472
2.9306	3.4584
2.9289	3.4599
2.9272	3.4486
2.9256	3.4264
2.9239	3.3981
2.9223	3.3726
2.9207	3.358
2.919	3.3558
2.9174	3.3661
2.9157	3.386
2.9141	3.4106
2.9124	3.4355
2.9108	3.4559
2.9092	3.4683
2.9075	3.4714
2.9059	3.4673
2.9043	3.4604
2.9027	3.4537
2.901	3.4486
2.8994	3.4472
2.8978	3.4491
2.8962	3.4522
2.8946	3.4546
2.8929	3.457
2.8913	3.4599
2.8897	3.4622
2.8881	3.4647
2.8865	3.4697
2.8849	3.48
2.8833	3.4953
2.8817	3.5135
2.8801	3.5303
2.8785	3.5417
2.8769	3.5434
2.8753	3.5338
2.8737	3.5163
2.8721	3.4972
2.8705	3.4816
2.8689	3.47
2.8673	3.4635
2.8658	3.462
2.8642	3.4649
2.8626	3.4718
2.861	3.4828
2.8594	3.4979
2.8579	3.5125
2.8563	3.5221
2.8547	3.5256
2.8531	3.5238
2.8516	3.5202
2.85	3.5197
2.8484	3.5255
2.8469	3.5381
2.8453	3.5549
2.8437	3.5724
2.8422	3.5889
2.8406	3.6008
2.8391	3.6083
2.8375	3.6123
2.836	3.6128
2.8344	3.6099
2.8329	3.603
2.8313	3.5912
2.8298	3.5738
2.8282	3.5508
2.8267	3.5281
2.8252	3.5123
2.8236	3.5085
2.8221	3.52
2.8205	3.5446
2.819	3.5738
2.8175	3.597
2.8159	3.6085
2.8144	3.6078
2.8129	3.5987
2.8114	3.5895
2.8098	3.5893
2.8083	3.6011
2.8068	3.6226
2.8053	3.6513
2.8038	3.6815
2.8022	3.7072
2.8007	3.7269
2.7992	3.7439
2.7977	3.765
2.7962	3.7949
2.7947	3.8372
2.7932	3.8923
2.7917	3.9537
2.7902	4.0123
2.7887	4.0611
2.7872	4.0963
2.7857	4.1169
2.7842	4.1229
2.7827	4.1131
2.7812	4.0913
2.7797	4.0643
2.7782	4.0415
2.7767	4.0332
2.7752	4.0461
2.7738	4.0787
2.7723	4.1197
2.7708	4.1511
2.7693	4.1605
2.7678	4.1432
2.7664	4.1018
2.7649	4.0458
2.7634	3.9901
2.7619	3.947
2.7605	3.9236
2.759	3.9217
2.7575	3.9427
2.7561	3.9819
2.7546	4.0279
2.7531	4.0647
2.7517	4.0787
2.7502	4.0602
2.7488	4.0118
2.7473	3.952
2.7458	3.9119
2.7444	3.9185
2.7429	3.981
2.7415	4.0848
2.74	4.1939
2.7386	4.2662
2.7371	4.276
2.7357	4.2319
2.7343	4.1733
2.7328	4.1478
2.7314	4.1858
2.7299	4.2865
2.7285	4.4157
2.7271	4.527
2.7256	4.5939
2.7242	4.6289
2.7228	4.6789
2.7213	4.8009
2.7199	5.033
2.7185	5.3778
2.7171	5.802
2.7156	6.2528
2.7142	6.6849
2.7128	7.0775
2.7114	7.4373
2.71	7.7883
2.7085	8.1572
2.7071	8.5661
2.7057	9.0262
2.7043	9.5421
2.7029	10.1103
2.7015	10.7266
2.7001	11.3892
2.6987	12.0933
2.6973	12.833
2.6959	13.6035
2.6945	14.3994
2.6931	15.2149
2.6917	16.0374
2.6903	16.8516
2.6889	17.6374
2.6875	18.3704
2.6861	19.0305
2.6847	19.6057
2.6833	20.094
2.6819	20.5024
2.6805	20.8433
2.6791	21.1312
2.6778	21.3745
2.6764	21.5774
2.675	21.7433
2.6736	21.8758
2.6722	21.9825
2.6709	22.0734
2.6695	22.1607
2.6681	22.2521
2.6667	22.3468
2.6654	22.4411
2.664	22.5296
2.6626	22.6093
2.6613	22.6835
2.6599	22.7583
2.6585	22.8416
2.6572	22.9356
2.6558	23.0362
2.6545	23.1361
2.6531	23.2281
2.6517	23.3074
2.6504	23.3756
2.649	23.4362
2.6477	23.4938
2.6463	23.5503
2.645	23.6027
2.6436	23.648
2.6423	23.6827
2.6409	23.7071
2.6396	23.7235
2.6382	23.7365
2.6369	23.7525
2.6356	23.775
2.6342	23.8039
2.6329	23.8399
2.6315	23.8829
2.6302	23.9315
2.6289	23.9829
2.6275	24.0363
2.6262	24.0904
2.6249	24.1425
2.6236	24.1891
2.6222	24.2291
2.6209	24.2617
2.6196	24.2858
2.6183	24.304
2.6169	24.3196
2.6156	24.3397
2.6143	24.3701
2.613	24.4134
2.6117	24.4657
2.6103	24.5196
2.609	24.5669
2.6077	24.6009
2.6064	24.6186
2.6051	24.625
2.6038	24.6308
2.6025	24.6413
2.6012	24.6571
2.5999	24.6772
2.5986	24.7007
2.5973	24.7213
2.596	24.7344
2.5947	24.7409
2.5934	24.7444
2.5921	24.7464
2.5908	24.7495
2.5895	24.7565
2.5882	24.7679
2.5869	24.7784
2.5856	24.7837
2.5843	24.7847
2.583	24.7834
2.5817	24.7842
2.5805	24.7923
2.5792	24.8117
2.5779	24.8406
2.5766	24.871
2.5753	24.8964
2.5741	24.9137
2.5728	24.9198
2.5715	24.9187
2.5702	24.9191
2.569	24.9325
2.5677	24.9646
2.5664	25.0115
2.5651	25.0651
2.5639	25.1144
2.5626	25.1491
2.5613	25.1668
2.5601	25.1744
2.5588	25.1852
2.5575	25.2067
2.5563	25.2374
2.555	25.2704
2.5538	25.2964
2.5525	25.3084
2.5513	25.3056
2.55	25.2933
2.5487	25.284
2.5475	25.2859
2.5462	25.3024
2.545	25.3321
2.5437	25.3672
2.5425	25.3997
2.5413	25.4239
2.54	25.4347
2.5388	25.4316
2.5375	25.418
2.5363	25.3984
2.535	25.3778
2.5338	25.3579
2.5326	25.3419
2.5313	25.333
2.5301	25.333
2.5289	25.3403
2.5276	25.3514
2.5264	25.3658
2.5252	25.3811
2.5239	25.3947
2.5227	25.4072
2.5215	25.4213
2.5202	25.44
2.519	25.4601
2.5178	25.4766
2.5166	25.4862
2.5154	25.489
2.5141	25.4888
2.5129	25.4897
2.5117	25.4996
2.5105	25.524
2.5093	25.5625
2.5081	25.6082
2.5068	25.6553
2.5056	25.6991
2.5044	25.7357
2.5032	25.7611
2.502	25.7771
2.5008	25.791
2.4996	25.8079
2.4984	25.8338
2.4972	25.8747
2.496	25.9331
2.4948	26.0046
2.4936	26.0829
2.4924	26.1616
2.4912	26.2371
2.49	26.3078
2.4888	26.3747
2.4876	26.441
2.4864	26.5054
2.4852	26.5661
2.484	26.6181
2.4828	26.6599
2.4816	26.6963
2.4805	26.7369
2.4793	26.7899
2.4781	26.8597
2.4769	26.9459
2.4757	27.0406
2.4745	27.1308
2.4734	27.2085
2.4722	27.2758
2.471	27.338
2.4698	27.4033
2.4686	27.4799
2.4675	27.5727
2.4663	27.6811
2.4651	27.8002
2.464	27.9229
2.4628	28.0402
2.4616	28.1407
2.4604	28.217
2.4593	28.268
2.4581	28.2989
2.4569	28.3249
2.4558	28.3649
2.4546	28.4305
2.4535	28.5209
2.4523	28.6264
2.4511	28.73
2.45	28.8145
2.4488	28.8695
2.4477	28.8958
2.4465	28.9034
2.4454	28.9029
2.4442	28.9018
2.4431	28.9018
2.4419	28.8994
2.4408	28.891
2.4396	28.8731
2.4385	28.8422
2.4373	28.8008
2.4362	28.7522
2.435	28.6969
2.4339	28.6319
2.4327	28.5544
2.4316	28.4682
2.4305	28.3769
2.4293	28.2806
2.4282	28.1822
2.427	28.0806
2.4259	27.9709
2.4248	27.845
2.4236	27.7021
2.4225	27.5516
2.4214	27.4024
2.4202	27.2605
2.4191	27.1272
2.418	26.9965
2.4169	26.8602
2.4157	26.7075
2.4146	26.5348
2.4135	26.346
2.4124	26.1472
2.4112	25.9475
2.4101	25.7544
2.409	25.5763
2.4079	25.4191
2.4068	25.2807
2.4056	25.1547
2.4045	25.0311
2.4034	24.9002
2.4023	24.7595
2.4012	24.6191
2.4001	24.4961
2.399	24.4069
2.3979	24.3606
2.3967	24.3573
2.3956	24.3847
2.3945	24.4239
2.3934	24.4619
2.3923	24.4969
2.3912	24.5308
2.3901	24.5691
2.389	24.621
2.3879	24.6926
2.3868	24.782
2.3857	24.8842
2.3846	24.993
2.3835	25.1041
2.3824	25.2093
2.3813	25.3005
2.3802	25.371
2.3791	25.412
2.3781	25.4148
2.377	25.3751
2.3759	25.2943
2.3748	25.1791
2.3737	25.04
2.3726	24.8851
2.3715	24.7196
2.3704	24.5389
2.3694	24.3377
2.3683	24.1148
2.3672	23.8703
2.3661	23.6115
2.365	23.351
2.364	23.0991
2.3629	22.8556
2.3618	22.6119
2.3607	22.3605
2.3597	22.0992
2.3586	21.8281
2.3575	21.5549
2.3564	21.2915
2.3554	21.0455
2.3543	20.8197
2.3532	20.6142
2.3522	20.4305
2.3511	20.272
2.35	20.1397
2.349	20.0299
2.3479	19.9327
2.3468	19.8366
2.3458	19.7353
2.3447	19.6316
2.3436	19.5313
2.3426	19.4445
2.3415	19.3801
2.3405	19.3399
2.3394	19.3177
2.3384	19.3057
2.3373	19.2992
2.3363	19.293
2.3352	19.2815
2.3342	19.2633
2.3331	19.2435
2.3321	19.2279
2.331	19.2234
2.33	19.2394
2.3289	19.2798
2.3279	19.3413
2.3268	19.4198
2.3258	19.5136
2.3247	19.6201
2.3237	19.734
2.3226	19.8514
2.3216	19.9692
2.3206	20.0782
2.3195	20.1747
2.3185	20.2651
2.3175	20.3591
2.3164	20.462
2.3154	20.5776
2.3144	20.7089
2.3133	20.8544
2.3123	21.0094
2.3113	21.175
2.3102	21.3525
2.3092	21.5377
2.3082	21.7236
2.3071	21.9054
2.3061	22.0822
2.3051	22.2555
2.3041	22.4303
2.303	22.6179
2.302	22.8249
2.301	23.0521
2.3	23.3006
2.299	23.5692
2.2979	23.8587
2.2969	24.1693
2.2959	24.5025
2.2949	24.8588
2.2939	25.2316
2.2929	25.6097
2.2918	25.9778
2.2908	26.3259
2.2898	26.6533
2.2888	26.9614
2.2878	27.2538
2.2868	27.534
2.2858	27.8044
2.2848	28.0592
2.2838	28.2891
2.2828	28.4922
2.2818	28.6728
2.2808	28.8307
2.2798	28.9628
2.2787	29.0707
2.2777	29.1619
2.2767	29.2379
2.2757	29.2966
2.2747	29.3351
2.2738	29.3487
2.2728	29.3272
2.2718	29.2604
2.2708	29.1514
2.2698	29.0123
2.2688	28.858
2.2678	28.7016
2.2668	28.55
2.2658	28.4089
2.2648	28.2773
2.2638	28.1517
2.2628	28.0311
2.2618	27.9187
2.2609	27.8189
2.2599	27.7359
2.2589	27.6694
2.2579	27.6208
2.2569	27.5928
2.2559	27.5851
2.255	27.6036
2.254	27.6613
2.253	27.7718
2.252	27.9453
2.251	28.185
2.2501	28.4876
2.2491	28.843
2.2481	29.2341
2.2471	29.6464
2.2462	30.0677
2.2452	30.489
2.2442	30.9077
2.2433	31.3242
2.2423	31.735
2.2413	32.137
2.2403	32.5265
2.2394	32.8966
2.2384	33.24
2.2374	33.5544
2.2365	33.8429
2.2355	34.1097
2.2345	34.3535
2.2336	34.5751
2.2326	34.7748
2.2317	34.9507
2.2307	35.101
2.2297	35.2253
2.2288	35.3239
2.2278	35.3996
2.2269	35.4558
2.2259	35.501
2.225	35.5476
2.224	35.6074
2.2231	35.6876
2.2221	35.7862
2.2211	35.8941
2.2202	36.0013
2.2192	36.0965
2.2183	36.1726
2.2173	36.2319
2.2164	36.2831
2.2155	36.3338
2.2145	36.3867
2.2136	36.442
2.2126	36.4984
2.2117	36.5522
2.2107	36.5992
2.2098	36.64
2.2088	36.6762
2.2079	36.7042
2.207	36.7157
2.206	36.7069
2.2051	36.681
2.2041	36.647
2.2032	36.6169
2.2023	36.6063
2.2013	36.6291
2.2004	36.6882
2.1995	36.776
2.1985	36.8832
2.1976	37.0021
2.1967	37.1239
2.1957	37.2423
2.1948	37.3588
2.1939	37.4782
2.193	37.6
2.192	37.7191
2.1911	37.8311
2.1902	37.9294
2.1893	38.0091
2.1883	38.072
2.1874	38.1285
2.1865	38.1879
2.1856	38.2508
2.1846	38.3125
2.1837	38.3658
2.1828	38.4027
2.1819	38.4252
2.181	38.4436
2.18	38.4742
2.1791	38.5283
2.1782	38.6
2.1773	38.6745
2.1764	38.7307
2.1755	38.7539
2.1746	38.7426
2.1736	38.7089
2.1727	38.6783
2.1718	38.6724
2.1709	38.6979
2.17	38.7494
2.1691	38.8087
2.1682	38.8553
2.1673	38.8764
2.1664	38.8711
2.1655	38.8518
2.1646	38.8336
2.1637	38.8252
2.1628	38.8296
2.1619	38.8396
2.161	38.8463
2.1601	38.8475
2.1592	38.845
2.1583	38.8437
2.1574	38.847
2.1565	38.8503
2.1556	38.847
2.1547	38.8291
2.1538	38.7951
2.1529	38.7501
2.152	38.6998
2.1511	38.6518
2.1502	38.6103
2.1493	38.5711
2.1484	38.529
2.1475	38.4831
2.1466	38.4355
2.1458	38.3897
2.1449	38.3491
2.144	38.3173
2.1431	38.2962
2.1422	38.2818
2.1413	38.2725
2.1404	38.2694
2.1396	38.2775
2.1387	38.2991
2.1378	38.329
2.1369	38.3575
2.136	38.3751
2.1352	38.3756
2.1343	38.3572
2.1334	38.3247
2.1325	38.2919
2.1316	38.2704
2.1308	38.2582
2.1299	38.2476
2.129	38.236
2.1281	38.2194
2.1273	38.197
2.1264	38.1713
2.1255	38.1515
2.1247	38.146
2.1238	38.156
2.1229	38.1835
2.122	38.23
2.1212	38.2891
2.1203	38.3505
2.1194	38.4005
2.1186	38.4271
2.1177	38.4281
2.1168	38.413
2.116	38.4058
2.1151	38.4302
2.1143	38.4984
2.1134	38.6037
2.1125	38.7219
2.1117	38.8245
2.1108	38.8908
2.11	38.9197
2.1091	38.9317
2.1082	38.9508
2.1074	38.9881
2.1065	39.0396
2.1057	39.0884
2.1048	39.1179
2.104	39.1166
2.1031	39.0898
2.1023	39.0554
2.1014	39.0326
2.1005	39.0322
2.0997	39.0566
2.0988	39.0977
2.098	39.1413
2.0971	39.1738
2.0963	39.1851
2.0955	39.176
2.0946	39.1551
2.0938	39.1375
2.0929	39.1391
2.0921	39.165
2.0912	39.2066
2.0904	39.252
2.0895	39.2832
2.0887	39.2884
2.0879	39.2693
2.087	39.2281
2.0862	39.1772
2.0853	39.1353
2.0845	39.0776
2.0837	39.0477
2.0828	39.0449
2.082	38.9735
2.0812	39.1257
2.0803	39.132
2.0795	39.097
2.076	39.4149
2.072	39.3942
2.068	39.4549
2.064	39.1859
2.06	39.0467
2.056	38.9562
2.052	38.6328
2.048	38.2521
2.044	38.103
2.04	38.0762
2.036	37.9271
2.032	38.0136
2.028	37.8041
2.024	37.6127
2.02	37.256
2.016	36.9815
2.012	36.8457
2.008	36.6622
2.004	36.5719
2	36.1236
1.996	35.9109
1.992	36.0093
1.988	35.9485
1.984	35.8859
1.98	36.037
1.976	35.9258
1.972	35.9649
1.968	35.9389
1.964	35.7462
1.96	35.7475
1.956	35.7859
1.952	35.7094
1.948	35.6509
1.944	35.6427
1.94	35.672
1.936	35.5742
1.932	35.5448
1.928	35.4807
1.924	35.3016
1.92	35.1171
1.916	34.8648
1.912	34.8289
1.908	34.6435
1.904	34.6793
1.9	34.704
1.896	34.6443
1.892	34.6154
1.888	34.6304
1.884	34.3608
1.88	34.2873
1.876	34.038
1.872	34.1453
1.868	34.1573
1.864	34.0115
1.86	33.9856
1.856	34.0033
1.852	33.8171
1.848	33.7877
1.844	33.753
1.84	33.624
1.836	33.5291
1.832	33.3213
1.828	33.3318
1.824	33.1247
1.82	32.9562
1.816	32.9966
1.812	33.0405
1.808	32.9635
1.804	32.6863
1.8	32.5994
1.796	32.4381
1.792	32.3525
1.788	32.2885
1.784	32.1387
1.78	32.085
1.776	31.824
1.772	31.7827
1.768	31.69
1.764	31.4687
1.76	31.4883
1.756	31.1128
1.752	31.0018
1.748	30.9274
1.744	30.6848
1.74	30.5529
1.736	30.2047
1.732	29.9713
1.728	29.8261
1.724	29.7331
1.72	29.5839
1.716	29.4344
1.712	29.092
1.708	29.0348
1.704	28.7591
1.7	28.7236
1.696	28.5885
1.692	28.4511
1.688	28.2492
1.684	27.9272
1.68	27.6333
1.676	27.5783
1.672	27.4689
1.668	27.1788
1.664	27.0085
1.66	26.8122
1.656	26.8614
1.652	26.8115
1.648	26.5707
1.644	26.4057
1.64	26.271
1.636	25.9793
1.632	25.8377
1.628	25.6512
1.624	25.6595
1.62	25.5754
1.616	25.2686
1.612	25.1902
1.608	24.9928
1.604	24.6227
1.6	24.6026
1.596	24.4763
1.592	24.2978
1.588	24.2159
1.584	24.113
1.58	23.9688
1.576	23.7043
1.572	23.613
1.568	23.3922
1.564	23.1574
1.56	23.0824
1.556	22.9369
1.552	22.7841
1.548	22.6237
1.544	22.4323
1.54	22.1965
1.536	22.1623
1.532	21.8569
1.528	21.6021
1.524	21.6978
1.52	21.5481
1.516	21.3845
1.512	21.2798
1.508	21.1279
1.504	21.0241
1.5	20.8845
1.496	20.7433
1.492	20.5746
1.488	20.5195
1.484	20.4075
1.48	20.3143
1.476	20.1466
1.472	19.9836
1.468	19.8677
1.464	19.8116
1.46	19.635
1.456	19.563
1.452	19.3982
1.448	19.2317
1.444	19.1288
1.44	18.8618
1.436	18.8643
1.432	18.6561
1.428	18.5988
1.424	18.5283
1.42	18.1765
1.416	17.9493
1.412	17.6722
1.408	17.3285
1.404	17.0245
1.4	16.8445
1.396	16.6898
1.392	16.6448
1.388	16.6413
1.384	16.8797
1.38	16.9185
1.376	16.9459
1.372	16.8724
1.368	16.9318
1.364	16.8822
1.36	16.6909
1.356	16.5511
1.352	16.4104
1.348	16.4347
1.344	16.3444
1.34	16.1782
1.336	16.1287
1.332	16.0618
1.328	15.9018
1.324	15.8878
1.32	15.7437
1.316	15.6063
1.312	15.5797
1.308	15.439
1.304	15.2719
1.3	15.1906
1.296	15.0354
1.292	14.9543
1.288	14.9307
1.284	14.8306
1.28	14.7472
1.276	14.652
1.272	14.6032
1.268	14.5696
1.264	14.4035
1.26	14.2482
1.256	14.2458
1.252	14.201
1.248	14.0872
1.244	13.9972
1.24	13.7951
1.236	13.8674
1.232	13.7937
1.228	13.711
1.224	13.7187
1.22	13.598
1.216	13.5257
1.212	13.4884
1.208	13.4859
1.204	13.3284
1.2	13.2755
1.196	13.2278
1.192	13.0991
1.188	13.0353
1.184	13.0308
1.18	13.0194
1.176	13.0104
1.172	12.9772
1.168	13.05
1.164	12.8932
1.16	12.7131
1.156	12.6173
1.152	12.5255
1.148	12.5971
1.144	12.7077
1.14	12.5696
1.136	12.6226
1.132	12.61
1.128	12.5525
1.124	12.5316
1.12	12.5286
1.116	12.5474
1.112	12.5908
1.108	12.5038
1.104	12.4904
1.1	12.509
1.096	12.4706
1.092	12.4521
1.088	12.4579
1.084	12.4517
1.08	12.4579
1.076	12.3498
1.072	12.3015
1.068	12.418
1.064	12.3921
1.06	12.3497
1.056	12.3415
1.052	12.3055
1.048	12.418
1.044	12.4748
1.04	12.3374
1.036	12.3151
1.032	12.2579
1.028	12.3595
1.024	12.3121
1.02	12.2966
1.016	12.2158
1.012	12.3359
1.008	12.2955
1.004	12.3744
1	12.3251
0.996	12.3291
0.992	12.3451
0.988	12.2973
0.984	12.3613
0.98	12.2379
0.976	12.2593
0.972	12.3798
0.968	12.2715
0.964	12.3049
0.96	12.2085
0.956	12.2469
0.952	12.2242
0.948	12.1257
0.944	12.1646
0.94	12.1027
0.936	12.0948
0.932	12.1247
0.928	12.1556
0.924	12.1327
0.92	12.1986
0.916	12.1697
0.912	12.1126
0.908	12.1407
0.904	12.0997
0.9	12.2307
0.896	12.1006
0.892	12.0733
0.888	12.3122
0.884	12.3605
0.88	12.3649
0.876	12.3316
0.872	12.397
0.868	12.2864
0.864	12.1533
0.86	12.3948
0.856	12.4322
0.852	12.3721
0.848	12.446
0.844	12.5712
0.84	12.4483
0.836	12.5422
0.832	12.5535
0.828	12.6009
0.824	12.5963
0.82	12.6593
0.816	12.4998
0.812	12.6209
0.808	12.7623
0.804	12.6835
0.8	12.6453
0.799	12.2506
0.798	12.2505
0.797	12.5562
0.796	12.3624
0.795	12.2668
0.794	12.5083
0.793	12.4056
0.792	12.484
0.791	12.527
0.79	12.5677
0.789	12.6228
0.788	12.4127
0.787	12.5319
0.786	12.3981
0.785	12.5435
0.784	12.5603
0.783	12.3548
0.782	12.592
0.781	12.4128
0.78	12.3493
0.779	12.4392
0.778	12.43
0.777	12.4707
0.776	12.4179
0.775	12.4319
0.774	12.2769
0.773	12.3914
0.772	12.3846
0.771	12.3701
0.77	12.504
0.769	12.4333
0.768	12.5867
0.767	12.762
0.766	12.4843
0.765	12.3918
0.764	12.3058
0.763	12.4137
0.762	12.2203
0.761	12.3445
0.76	12.3852
0.759	12.329
0.758	12.4679
0.757	12.5004
0.756	12.422
0.755	12.3925
0.754	12.3038
0.753	12.3084
0.752	12.2101
0.751	12.2125
0.75	12.2851
0.749	12.1153
0.748	12.0587
0.747	12.1849
0.746	12.1633
0.745	12.2493
0.744	12.4107
0.743	12.3343
0.742	12.236
0.741	12.2271
0.74	12.3355
0.739	12.2931
0.738	12.1442
0.737	12.1776
0.736	12.2809
0.735	12.4096
0.734	12.4121
0.733	12.423
0.732	12.099
0.731	12.3383
0.73	12.2111
0.729	12.2717
0.728	12.463
0.727	12.3004
0.726	12.3167
0.725	12.3551
0.724	12.3567
0.723	12.2931
0.722	12.1533
0.721	12.2191
0.72	12.4162
0.719	12.5647
0.718	12.3077
0.717	12.2779
0.716	12.3636
0.715	12.4536
0.714	12.2384
0.713	12.1414
0.712	12.1243
0.711	12.4524
0.71	12.2288
0.709	12.1767
0.708	12.2978
0.707	12.4434
0.706	12.2804
0.705	12.4665
0.704	12.4763
0.703	12.4152
0.702	12.5423
0.701	12.4728
0.7	12.3339
0.699	12.2096
0.698	12.3576
0.697	12.3217
0.696	12.2415
0.695	12.2962
0.694	12.1923
0.693	12.4678
0.692	12.5523
0.691	12.4358
0.69	12.4099
0.689	12.5527
0.688	12.6085
0.687	12.5023
0.686	12.4997
0.685	12.6719
0.684	12.6477
0.683	12.6144
0.682	12.396
0.681	12.5813
0.68	12.561
0.679	12.3761
0.678	12.6571
0.677	12.5023
0.676	12.6375
0.675	12.5846
0.674	12.3924
0.673	12.3769
0.672	12.622
0.671	12.5604
0.67	12.7076
0.669	12.7875
0.668	12.6957
0.667	12.7529
0.666	12.662
0.665	12.6538
0.664	12.6301
0.663	12.5392
0.662	12.6112
0.661	12.7367
0.66	12.6138
0.659	12.5657
0.658	12.5178
0.657	12.5285
0.656	12.4064
0.655	12.6736
0.654	12.6391
0.653	12.7192
0.652	12.7768
0.651	12.7201
0.65	12.6868
0.649	12.7882
0.648	12.9447
0.647	12.779
0.646	12.7417
0.645	12.6127
0.644	12.7108
0.643	12.8058
0.642	12.9505
0.641	12.9455
0.64	12.9887
0.639	13.0967
0.638	12.977
0.637	12.9397
0.636	12.994
0.635	12.9344
0.634	12.9344
0.633	13.0685
0.632	12.9564
0.631	13.0712
0.63	12.9775
0.629	13.0086
0.628	12.9976
0.627	12.7742
0.626	12.9054
0.625	12.9429
0.624	12.9399
0.623	13.0811
0.622	13.1501
0.621	13.0899
0.62	12.8344
0.619	12.9631
0.618	13.0594
0.617	13.255
0.616	13.1097
0.615	13.1046
0.614	13.0987
0.613	13.1816
0.612	13.1323
0.611	13.1127
0.61	13.1936
0.609	12.9669
0.608	13.0379
0.607	13.1192
0.606	13.2607
0.605	13.2903
0.604	13.2507
0.603	13.1401
0.602	13.11
0.601	13.2953
0.6	13.2187
0.599	13.3424
0.598	13.3075
0.597	13.4327
0.596	13.3926
0.595	13.4352
0.594	13.4796
0.593	13.4854
0.592	13.5739
0.591	13.2587
0.59	13.4639
0.589	13.3792
0.588	13.4173
0.587	13.4084
0.586	13.5123
0.585	13.4204
0.584	13.5958
0.583	13.511
0.582	13.629
0.581	13.59
0.58	13.7366
0.579	13.8202
0.578	13.6739
0.577	13.6611
0.576	13.6283
0.575	13.6483
0.574	13.654
0.573	13.6057
0.572	13.6703
0.571	13.5896
0.57	13.6517
0.569	13.7354
0.568	13.5446
0.567	13.7669
0.566	13.8637
0.565	13.9514
0.564	13.895
0.563	13.8373
0.562	13.7407
0.561	13.9483
0.56	13.7202
0.559	13.9402
0.558	13.9655
0.557	13.8686
0.556	13.5093
0.555	13.6329
0.554	13.9456
0.553	14.0184
0.552	14.0721
0.551	14.1174
0.55	14.022
0.549	13.9319
0.548	13.9827
0.547	13.9468
0.546	13.9189
0.545	13.8448
0.544	13.769
0.543	13.8257
0.542	14.0374
0.541	14.0432
0.54	14.1937
0.539	13.9538
0.538	14.13
0.537	14.1764
0.536	14.1314
0.535	13.986
0.534	14.1315
0.533	13.8967
0.532	14.047
0.531	14.1563
0.53	14.1663
0.529	14.0828
0.528	14.0668
0.527	13.9468
0.526	13.8439
0.525	13.9261
0.524	14.1682
0.523	14.0908
0.522	14.1483
0.521	14.2544
0.52	14.2526
0.519	14.3776
0.518	14.0319
0.517	14.1741
0.516	14.0728
0.515	13.782
0.514	13.9726
0.513	14.1651
0.512	13.8408
0.511	14.2921
0.51	14.2745
0.509	14.1366
0.508	14.1595
0.507	14.1661
0.506	14.1709
0.505	14.0152
0.504	14.0642
0.503	14.1295
0.502	14.0498
0.501	14.3006
0.5	14.183
0.499	14.4399
0.498	14.3391
0.497	14.2838
0.496	14.2389
0.495	14.053
0.494	14.0783
0.493	14.1841
0.492	14.0691
0.491	14.1413
0.49	14.1078
0.489	13.9757
0.488	14.1821
0.487	14.1781
0.486	14.1886
0.485	14.1894
0.484	14.2499
0.483	14.1827
0.482	14.1794
0.481	13.9335
0.48	13.9502
0.479	14.0231
0.478	13.9592
0.477	13.8868
0.476	14.027
0.475	14.0066
0.474	13.8293
0.473	13.9105
0.472	14.1067
0.471	14.1162
0.47	13.9265
0.469	13.9074
0.468	13.8728
0.467	13.8718
0.466	13.7851
0.465	13.9836
0.464	13.7433
0.463	13.5516
0.462	13.5488
0.461	13.8256
0.46	13.7602
0.459	13.8036
0.458	13.7346
0.457	13.6067
0.456	13.6757
0.455	13.5713
0.454	13.7268
0.453	13.7872
0.452	13.7956
0.451	13.7269
0.45	13.8146
0.449	13.8872
0.448	13.8257
0.447	13.6643
0.446	13.7092
0.445	13.3542
0.444	13.2655
0.443	13.25
0.442	13.545
0.441	13.6616
0.44	13.6273
0.439	13.6222
0.438	13.6715
0.437	13.4326
0.436	13.4328
0.435	13.2936
0.434	13.294
0.433	13.3006
0.432	13.2807
0.431	13.5611
0.43	13.2898
0.429	13.1944
0.428	13.1652
0.427	13.2041
0.426	13.1531
0.425	13.2906
0.424	13.1269
0.423	13.0962
0.422	12.9346
0.421	12.9492
0.42	13.037
0.419	13.0185
0.418	13.0756
0.417	13.2272
0.416	13.1597
0.415	13.0714
0.414	13.0027
0.413	12.9362
0.412	12.82
0.411	12.8694
0.41	12.6326
0.409	12.7746
0.408	12.7169
0.407	12.626
0.406	12.5412
0.405	12.6066
0.404	12.5418
0.403	12.5054
0.402	12.4973
0.401	12.4918
0.4	12.3105
