Name: Aragonite CaCO3
Type:  Mineral  
Class:  Carbonates
Subclass:   
Particle Size:  Coarse (74-250 Micrometers)
Sample No.:  aragonite.1
Owner: JHU
Wavelength Range:  IR
Origin:  Sample from Horenec, Bilina, Cechy, Czechoslovakia, via 
Smithsonian (sample no. NMNH B10083). 
Description: The sample was composed of two transparent, colorless 
pieces: one prismatic, 1.8 cm x 1.8 cm x 2 cm, and weighing about 2 
g; the other a 5 mm x 5 mm x 5 mm cleavage fragment weighing 
0.65 g.  No impurities were detected in hand sample or 
microscopically.

Measurement:  Bidirectional reflectance
First Column:  X
Second Column:  Y  
X Units:  Wavelength (micrometers)
Y Units:  Reflectance (percent)
First X Value:  25.0442
Last X Value:  4.4055
Number of X Values:  2287
Additional Information: aragon1a.txt
25.044    2.2344
24.924    1.8877
24.805    1.5391
24.686    1.1494
24.569    0.9043
24.454    0.8638
24.339    0.9277
24.225    0.9219
24.112    0.7876
24.001    0.8057
23.890    0.8135
23.781    0.8149
23.672    0.8584
23.564    0.8286
23.458    0.8496
23.352    1.0103
23.247    1.0576
23.144    1.1040
23.041    1.1035
22.939    1.2085
22.838    1.2402
22.738    1.2549
22.638    1.2949
22.540    1.3323
22.442    1.3467
22.345    1.3997
22.250    1.4456
22.154    1.5286
22.060    1.5249
21.967    1.4895
21.874    1.5754
21.782    1.6155
21.691    1.6956
21.601    1.7656
21.511    1.7754
21.422    1.8057
21.334    1.8870
21.247    1.9680
21.160    2.0498
21.074    2.0801
20.988    2.1506
20.904    2.2053
20.820    2.2178
20.737    2.2388
20.654    2.2768
20.572    2.3870
20.491    2.5032
20.410    2.5327
20.330    2.4893
20.251    2.5520
20.172    2.5832
20.094    2.6582
20.016    2.7329
19.939    2.7510
19.863    2.8232
19.787    2.9143
19.712    2.9624
19.637    2.9978
19.563    3.0610
19.489    3.1123
19.416    3.0976
19.344    3.1150
19.272    3.2397
19.201    3.3025
19.130    3.3581
19.059    3.4192
18.990    3.4346
18.920    3.4531
18.851    3.5283
18.783    3.6040
18.715    3.6440
18.648    3.6587
18.581    3.7778
18.515    3.8555
18.449    3.8594
18.384    3.9165
18.319    4.0483
18.254    4.1052
18.190    4.2139
18.126    4.3281
18.063    4.4228
18.001    4.5176
17.938    4.6055
17.876    4.6792
17.815    4.7649
17.754    4.9224
17.693    5.0395
17.633    5.1294
17.573    5.2554
17.514    5.3682
17.455    5.4558
17.396    5.5434
17.338    5.6260
17.280    5.7402
17.223    5.8310
17.166    5.9177
17.109    6.0476
17.053    6.1352
16.997    6.2104
16.942    6.3237
16.886    6.4399
16.832    6.5180
16.777    6.5942
16.723    6.7256
16.669    6.8774
16.616    6.9116
16.563    6.9275
16.510    7.0063
16.458    7.0703
16.406    7.1274
16.354    7.2309
16.302    7.3208
16.251    7.3901
16.200    7.4585
16.150    7.5273
16.100    7.6313
16.050    7.7168
16.000    7.8110
15.951    7.9021
15.902    7.9531
15.854    8.0029
15.805    8.0669
15.757    8.1391
15.710    8.1914
15.662    8.2739
15.615    8.3440
15.568    8.3796
15.521    8.4253
15.475    8.5215
15.429    8.5923
15.383    8.6250
15.338    8.6557
15.292    8.6992
15.248    8.7190
15.203    8.7434
15.158    8.7676
15.114    8.7861
15.070    8.7929
15.027    8.7954
14.983    8.8034
14.940    8.8008
14.897    8.7131
14.854    8.6347
14.812    8.5947
14.770    8.5210
14.728    8.3681
14.686    8.2036
14.645    8.0039
14.603    7.7080
14.562    7.2627
14.521    6.5349
14.481    5.9038
14.441    5.5840
14.400    4.9516
14.361    4.1704
14.321    3.6890
14.281    3.3518
14.242    3.1045
14.203    3.3257
14.164    3.6904
14.126    3.9836
14.087    4.4111
14.049    5.2915
14.011    5.2554
13.973    3.5178
13.936    2.4282
13.899    2.8186
13.861    4.0088
13.824    5.0932
13.788    5.8298
13.751    6.3960
13.715    6.8816
13.679    7.2505
13.643    7.5439
13.607    7.7827
13.571    8.0210
13.536    8.2243
13.500    8.3852
13.465    8.5105
13.430    8.6550
13.396    8.7612
13.361    8.8816
13.327    9.0219
13.293    9.1069
13.259    9.1404
13.225    9.1443
13.191    9.1699
13.158    9.1950
13.124    9.2004
13.091    9.2480
13.058    9.2734
13.026    9.2739
12.993    9.3183
12.960    9.3340
12.928    9.3193
12.896    9.3086
12.864    9.2612
12.832    9.1987
12.800    9.1467
12.769    9.1101
12.737    9.0666
12.706    8.9741
12.675    8.8725
12.644    8.7866
12.614    8.6977
12.583    8.6421
12.552    8.5605
12.522    8.4409
12.492    8.3122
12.462    8.1841
12.432    8.0598
12.402    7.9243
12.373    7.7866
12.343    7.6748
12.314    7.5522
12.285    7.4304
12.256    7.2866
12.227    7.1167
12.198    6.9475
12.169    6.7500
12.141    6.5005
12.113    6.2541
12.084    6.0288
12.056    5.7932
12.028    5.5666
12.000    5.4131
11.973    5.2773
11.945    5.1377
11.918    5.0498
11.890    4.9973
11.863    4.8489
11.836    4.7451
11.809    4.9336
11.782    5.1894
11.755    5.4392
11.729    5.8279
11.702    6.1931
11.676    6.3782
11.650    6.5044
11.624    6.6938
11.598    6.9099
11.572    7.1728
11.546    7.5720
11.520    8.1653
11.495    8.9087
11.469    9.6516
11.444   10.2312
11.419   10.3469
11.394    9.8110
11.369    9.0110
11.344    8.2651
11.319    7.6228
11.294    7.0532
11.270    6.4946
11.245    5.9866
11.221    5.5476
11.197    5.1697
11.173    4.9302
11.149    4.7991
11.125    4.7529
11.101    4.7412
11.077    4.6760
11.054    4.4761
11.030    3.9709
11.007    3.3755
10.983    3.7844
10.960    4.7773
10.937    5.2839
10.914    5.4822
10.891    5.5530
10.868    5.5464
10.846    5.5300
10.823    5.5356
10.800    5.5444
10.778    5.5896
10.755    5.6577
10.733    5.7119
10.711    5.7932
10.689    5.8860
10.667    5.9546
10.645    5.9831
10.623    5.9866
10.602    5.9856
10.580    5.9990
10.558    6.0417
10.537    6.1052
10.516    6.1562
10.494    6.1809
10.473    6.2146
10.452    6.2178
10.431    6.2097
10.410    6.2151
10.389    6.2402
10.368    6.3086
10.348    6.3901
10.327    6.4507
10.306    6.4580
10.286    6.4109
10.266    6.3652
10.245    6.3391
10.225    6.3113
10.205    6.3103
10.185    6.3542
10.165    6.3801
10.145    6.4211
10.125    6.5039
10.106    6.5930
10.086    6.6750
10.066    6.7571
10.047    6.8362
10.027    6.9026
10.008    6.9482
 9.989    6.9692
 9.970    6.9922
 9.950    7.0281
 9.931    7.0566
 9.912    7.0722
 9.893    7.0805
 9.875    7.0732
 9.856    7.0552
 9.837    7.0498
 9.818    7.0578
 9.800    7.0632
 9.781    7.0459
 9.763    7.0263
 9.745    7.0146
 9.726    6.9995
 9.708    6.9768
 9.690    6.9389
 9.672    6.9187
 9.654    6.9021
 9.636    6.8791
 9.618    6.8459
 9.600    6.7995
 9.583    6.7532
 9.565    6.7131
 9.547    6.6333
 9.530    6.5410
 9.512    6.4621
 9.495    6.3645
 9.477    6.2309
 9.460    5.9402
 9.443    5.5246
 9.426    5.6108
 9.409    5.8813
 9.392    5.8723
 9.375    5.7351
 9.358    5.5400
 9.341    5.4216
 9.324    5.2737
 9.307    4.9866
 9.291    4.5686
 9.274    4.0098
 9.257    3.4018
 9.241    2.9748
 9.224    2.7534
 9.208    3.0947
 9.192    3.8594
 9.175    4.4878
 9.159    4.8823
 9.143    5.1045
 9.127    5.2410
 9.111    5.3113
 9.095    5.3259
 9.079    5.3301
 9.063    5.3450
 9.047    5.3591
 9.032    5.3845
 9.016    5.4353
 9.000    5.5083
 8.985    5.5671
 8.969    5.5945
 8.954    5.5984
 8.938    5.5967
 8.923    5.5581
 8.907    5.4922
 8.892    5.4009
 8.877    5.3218
 8.862    5.2449
 8.847    5.1501
 8.832    5.0598
 8.817    4.9951
 8.802    4.9294
 8.787    4.8496
 8.772    4.7786
 8.757    4.7109
 8.742    4.6387
 8.728    4.5686
 8.713    4.5227
 8.698    4.4722
 8.684    4.3943
 8.669    4.3220
 8.655    4.2551
 8.640    4.1745
 8.626    4.1045
 8.612    4.0339
 8.597    3.9465
 8.583    3.8672
 8.569    3.7947
 8.555    3.7180
 8.541    3.6619
 8.527    3.6216
 8.513    3.5947
 8.499    3.5859
 8.485    3.5830
 8.471    3.5864
 8.457    3.5937
 8.443    3.5925
 8.430    3.6225
 8.416    3.6604
 8.402    3.6782
 8.389    3.7014
 8.375    3.7222
 8.362    3.7378
 8.348    3.7578
 8.335    3.7937
 8.321    3.8367
 8.308    3.8747
 8.295    3.9058
 8.281    3.9226
 8.268    3.9243
 8.255    3.9297
 8.242    3.9309
 8.229    3.9048
 8.216    3.8867
 8.203    3.8750
 8.190    3.8489
 8.177    3.8362
 8.164    3.8325
 8.151    3.8159
 8.138    3.7961
 8.126    3.7793
 8.113    3.7468
 8.100    3.7095
 8.088    3.6890
 8.075    3.6789
 8.062    3.6555
 8.050    3.6350
 8.037    3.6316
 8.025    3.6228
 8.013    3.5976
 8.000    3.5915
 7.988    3.6174
 7.976    3.6533
 7.963    3.6819
 7.951    3.6948
 7.939    3.6985
 7.927    3.6833
 7.915    3.6599
 7.903    3.6330
 7.891    3.6052
 7.879    3.5845
 7.867    3.5742
 7.855    3.5583
 7.843    3.5415
 7.831    3.5351
 7.819    3.5239
 7.807    3.5173
 7.796    3.5193
 7.784    3.5298
 7.772    3.5603
 7.761    3.5886
 7.749    3.6059
 7.738    3.6186
 7.726    3.6333
 7.715    3.6487
 7.703    3.6538
 7.692    3.6575
 7.680    3.6667
 7.669    3.6724
 7.658    3.6772
 7.646    3.6853
 7.635    3.6975
 7.624    3.7251
 7.613    3.7549
 7.601    3.7798
 7.590    3.7937
 7.579    3.8147
 7.568    3.8381
 7.557    3.8486
 7.546    3.8562
 7.535    3.8677
 7.524    3.8755
 7.513    3.8816
 7.502    3.8987
 7.492    3.9233
 7.481    3.9258
 7.470    3.9329
 7.459    3.9485
 7.448    3.9563
 7.438    3.9612
 7.427    3.9746
 7.417    3.9873
 7.406    3.9866
 7.395    3.9966
 7.385    4.0154
 7.374    4.0300
 7.364    4.0532
 7.353    4.0727
 7.343    4.0896
 7.333    4.1125
 7.322    4.1426
 7.312    4.1741
 7.302    4.1941
 7.291    4.2207
 7.281    4.2544
 7.271    4.2761
 7.261    4.2988
 7.251    4.3320
 7.240    4.3630
 7.230    4.3884
 7.220    4.4106
 7.210    4.4253
 7.200    4.4397
 7.190    4.4661
 7.180    4.5085
 7.170    4.5478
 7.160    4.5898
 7.151    4.6499
 7.141    4.7063
 7.131    4.7434
 7.121    4.7954
 7.111    4.8491
 7.102    4.9099
 7.092    4.9783
 7.082    5.0452
 7.073    5.1050
 7.063    5.1748
 7.053    5.2588
 7.044    5.3332
 7.034    5.4184
 7.025    5.5212
 7.015    5.6228
 7.006    5.7197
 6.996    5.8450
 6.987    6.0066
 6.977    6.1811
 6.968    6.3691
 6.959    6.5950
 6.949    6.8638
 6.940    7.1870
 6.931    7.5979
 6.921    8.0537
 6.912    8.5002
 6.903    8.9233
 6.894    9.3193
 6.885    9.6753
 6.876   10.0039
 6.866   10.3144
 6.857   10.6428
 6.848   10.9839
 6.839   11.3586
 6.830   11.7861
 6.821   12.2343
 6.812   12.6382
 6.803   12.9543
 6.794   13.1955
 6.786   13.4524
 6.777   13.7243
 6.768   13.9743
 6.759   14.2226
 6.750   14.4799
 6.741   14.7351
 6.733   14.9846
 6.724   15.2553
 6.715   15.5273
 6.707   15.7746
 6.698   16.0105
 6.689   16.1982
 6.681   16.3459
 6.672   16.5012
 6.663   16.6550
 6.655   16.7622
 6.646   16.8151
 6.638   16.8662
 6.629   16.9714
 6.621   17.0593
 6.612   17.1240
 6.604   17.1762
 6.596   17.1958
 6.587   17.2153
 6.579   17.2353
 6.571   17.2431
 6.562   17.2688
 6.554   17.2839
 6.546   17.2924
 6.537   17.2817
 6.529   17.2753
 6.521   17.2473
 6.513   17.2111
 6.505   17.1503
 6.496   17.0678
 6.488   16.9973
 6.480   16.9199
 6.472   16.8313
 6.464   16.7224
 6.456   16.5546
 6.448   16.3613
 6.440   16.1296
 6.432   15.8276
 6.424   15.4599
 6.416   14.9856
 6.408   14.4526
 6.400   13.8979
 6.392   13.3235
 6.384   12.7534
 6.377   12.2107
 6.369   11.7595
 6.361   11.3882
 6.353   11.0239
 6.345   10.6731
 6.338   10.3606
 6.330   10.0429
 6.322    9.7038
 6.314    9.3532
 6.307    8.9748
 6.299    8.5676
 6.291    8.1491
 6.284    7.7336
 6.276    7.3144
 6.269    6.9009
 6.261    6.4951
 6.254    6.0991
 6.246    5.7263
 6.238    5.3767
 6.231    5.0273
 6.223    4.6865
 6.216    4.3701
 6.209    4.0830
 6.201    3.8198
 6.194    3.5705
 6.186    3.3149
 6.179    3.0747
 6.172    2.8511
 6.164    2.6279
 6.157    2.4094
 6.150    2.1880
 6.142    1.9888
 6.135    1.8086
 6.128    1.6399
 6.121    1.4885
 6.113    1.3452
 6.106    1.2185
 6.099    1.1111
 6.092    1.0107
 6.085    0.9282
 6.078    0.8679
 6.070    0.8176
 6.063    0.7808
 6.056    0.7490
 6.049    0.7302
 6.042    0.7200
 6.035    0.7229
 6.028    0.7244
 6.021    0.7261
 6.014    0.7300
 6.007    0.7485
 6.000    0.7668
 5.993    0.7729
 5.986    0.7847
 5.979    0.8086
 5.973    0.8318
 5.966    0.8555
 5.959    0.8867
 5.952    0.9121
 5.945    0.9341
 5.938    0.9570
 5.932    0.9807
 5.925    1.0029
 5.918    1.0222
 5.911    1.0459
 5.905    1.0735
 5.898    1.1023
 5.891    1.1265
 5.884    1.1411
 5.878    1.1697
 5.871    1.1973
 5.864    1.2222
 5.858    1.2524
 5.851    1.2744
 5.845    1.2952
 5.838    1.3135
 5.831    1.3367
 5.825    1.3589
 5.818    1.3887
 5.812    1.4238
 5.805    1.4692
 5.799    1.5210
 5.792    1.5647
 5.786    1.6060
 5.779    1.6438
 5.773    1.6848
 5.767    1.7263
 5.760    1.7676
 5.754    1.8069
 5.747    1.8494
 5.741    1.8975
 5.735    1.9470
 5.728    1.9741
 5.722    1.9690
 5.716    2.0066
 5.709    2.0803
 5.703    2.1182
 5.697    2.1638
 5.691    2.2231
 5.684    2.2812
 5.678    2.3220
 5.672    2.3342
 5.666    2.3337
 5.660    2.3064
 5.653    2.2493
 5.647    2.1418
 5.641    1.9507
 5.635    1.7007
 5.629    1.4797
 5.623    1.3584
 5.617    1.3081
 5.611    1.2817
 5.604    1.2671
 5.598    1.2544
 5.592    1.2180
 5.586    1.2002
 5.580    1.2766
 5.574    1.4221
 5.568    1.5713
 5.562    1.7070
 5.556    1.9133
 5.550    2.3359
 5.545    2.9165
 5.539    3.4509
 5.533    3.8686
 5.527    4.2231
 5.521    4.5359
 5.515    4.8071
 5.509    5.0525
 5.503    5.2781
 5.498    5.4875
 5.492    5.6882
 5.486    5.8794
 5.480    6.0432
 5.474    6.1982
 5.469    6.3491
 5.463    6.4895
 5.457    6.6250
 5.451    6.7678
 5.446    6.9021
 5.440    7.0249
 5.434    7.1470
 5.428    7.2644
 5.423    7.3742
 5.417    7.4980
 5.411    7.6157
 5.406    7.7121
 5.400    7.8203
 5.395    7.9382
 5.389    8.0346
 5.383    8.1194
 5.378    8.2187
 5.372    8.3283
 5.367    8.4187
 5.361    8.5083
 5.356    8.5962
 5.350    8.6692
 5.344    8.7597
 5.339    8.8535
 5.333    8.9289
 5.328    8.9941
 5.323    9.0649
 5.317    9.1345
 5.312    9.1931
 5.306    9.2519
 5.301    9.3186
 5.295    9.3669
 5.290    9.4189
 5.285    9.4756
 5.279    9.5107
 5.274    9.5537
 5.268    9.6069
 5.263    9.6482
 5.258    9.6828
 5.252    9.7278
 5.247    9.7737
 5.242    9.8215
 5.237    9.8698
 5.231    9.9258
 5.226    9.9824
 5.221   10.0246
 5.215   10.0700
 5.210   10.1325
 5.205   10.1823
 5.200   10.2380
 5.195   10.3051
 5.189   10.3518
 5.184   10.3911
 5.179   10.4194
 5.174   10.4323
 5.169   10.4524
 5.163   10.4880
 5.158   10.5280
 5.153   10.5656
 5.148   10.6042
 5.143   10.6394
 5.138   10.6648
 5.133   10.6904
 5.128   10.7331
 5.123   10.7700
 5.118   10.7907
 5.113   10.8310
 5.108   10.8767
 5.103   10.9138
 5.097   10.9546
 5.092   11.0014
 5.087   11.0432
 5.083   11.0749
 5.078   11.1196
 5.073   11.1599
 5.068   11.1806
 5.063   11.2138
 5.058   11.2387
 5.053   11.2502
 5.048   11.2678
 5.043   11.2990
 5.038   11.3481
 5.033   11.4111
 5.028   11.4775
 5.023   11.5339
 5.019   11.5905
 5.014   11.6469
 5.009   11.6882
 5.004   11.7182
 4.999   11.7558
 4.994   11.7873
 4.990   11.8088
 4.985   11.8401
 4.980   11.8740
 4.975   11.8945
 4.970   11.9187
 4.966   11.9597
 4.961   11.9909
 4.956   12.0068
 4.951   12.0434
 4.947   12.0854
 4.942   12.1064
 4.937   12.1189
 4.933   12.1513
 4.928   12.1862
 4.923   12.1989
 4.919   12.2192
 4.914   12.2497
 4.909   12.2636
 4.905   12.2822
 4.900   12.3110
 4.895   12.3359
 4.891   12.3486
 4.886   12.3645
 4.882   12.3786
 4.877   12.3840
 4.872   12.3982
 4.868   12.4096
 4.863   12.4008
 4.859   12.4060
 4.854   12.4245
 4.850   12.4299
 4.845   12.4375
 4.840   12.4604
 4.836   12.4668
 4.831   12.4631
 4.827   12.4812
 4.822   12.5027
 4.818   12.4946
 4.814   12.4895
 4.809   12.5029
 4.805   12.4951
 4.800   12.4633
 4.796   12.4297
 4.791   12.3777
 4.787   12.2998
 4.782   12.2087
 4.778   12.0993
 4.774   11.9682
 4.769   11.8352
 4.765   11.6699
 4.760   11.4182
 4.756   11.0920
 4.752   10.7558
 4.747   10.4504
 4.743   10.1543
 4.739    9.8479
 4.734    9.5241
 4.730    9.2177
 4.726    8.9751
 4.721    8.8117
 4.717    8.7029
 4.713    8.6272
 4.709    8.5644
 4.704    8.5088
 4.700    8.4577
 4.696    8.4018
 4.692    8.3308
 4.687    8.2234
 4.683    8.1091
 4.679    8.0425
 4.675    8.0779
 4.670    8.1814
 4.666    8.2441
 4.662    8.1448
 4.658    7.8305
 4.654    7.4075
 4.649    7.0386
 4.645    6.7851
 4.641    6.8059
 4.637    7.0049
 4.633    7.1911
 4.629    7.3672
 4.625    7.5688
 4.620    7.7829
 4.616    7.9609
 4.612    8.1255
 4.608    8.3017
 4.604    8.4629
 4.600    8.5683
 4.596    8.5871
 4.592    8.5552
 4.588    8.5796
 4.584    8.6980
 4.580    8.8459
 4.576    8.9929
 4.572    9.1286
 4.568    9.2446
 4.564    9.3484
 4.560    9.4511
 4.555    9.5581
 4.551    9.6435
 4.548    9.7092
 4.544    9.7917
 4.540    9.8901
 4.536   10.0114
 4.532   10.1606
 4.528   10.2929
 4.524   10.3945
 4.520   10.4883
 4.516   10.5637
 4.512   10.6220
 4.508   10.6899
 4.504   10.7644
 4.500   10.8239
 4.496   10.8574
 4.492   10.8879
 4.488   10.9170
 4.485   10.9343
 4.481   10.9397
 4.477   10.9482
 4.473   10.9475
 4.469   10.9345
 4.465   10.9248
 4.461   10.9140
 4.458   10.8957
 4.454   10.8801
 4.450   10.8659
 4.446   10.8467
 4.442   10.8445
 4.438   10.8540
 4.435   10.8662
 4.431   10.8960
 4.427   10.9394
 4.423   10.9878
 4.420   11.0459
 4.416   11.1313
 4.412   11.2107
 4.408   11.2839
 4.405   11.3564
 4.401   11.4250
 4.397   11.4736
 4.393   11.5154
 4.390   11.5578
 4.386   11.5776
 4.382   11.5852
 4.379   11.5945
 4.375   11.5915
 4.371   11.5732
 4.367   11.5373
 4.364   11.4802
 4.360   11.3869
 4.356   11.2524
 4.353   11.0539
 4.349   10.7783
 4.345   10.4636
 4.342   10.2004
 4.338   10.0281
 4.335    9.9402
 4.331    9.8913
 4.327    9.8567
 4.324    9.8110
 4.320    9.7326
 4.317    9.6054
 4.313    9.4343
 4.309    9.2807
 4.306    9.1953
 4.302    9.1694
 4.299    9.1716
 4.295    9.1955
 4.292    9.2302
 4.288    9.2573
 4.284    9.2678
 4.281    9.2680
 4.277    9.2849
 4.274    9.3325
 4.270    9.3498
 4.267    9.2480
 4.263    9.0386
 4.260    8.8176
 4.256    8.6792
 4.253    8.6467
 4.249    8.7053
 4.246    8.8437
 4.242    9.0183
 4.239    9.1672
 4.235    9.2820
 4.232    9.3576
 4.229    9.3886
 4.225    9.3781
 4.222    9.3325
 4.218    9.2590
 4.215    9.1946
 4.211    9.1806
 4.208    9.2138
 4.205    9.2558
 4.201    9.2756
 4.198    9.2771
 4.194    9.2861
 4.191    9.3205
 4.188    9.3615
 4.184    9.3952
 4.181    9.4289
 4.177    9.4575
 4.174    9.4868
 4.171    9.5210
 4.167    9.5466
 4.164    9.5561
 4.161    9.5461
 4.157    9.5300
 4.154    9.5134
 4.151    9.4988
 4.147    9.4863
 4.144    9.4734
 4.141    9.4499
 4.137    9.4145
 4.134    9.3576
 4.131    9.2878
 4.128    9.2138
 4.124    9.1450
 4.121    9.0703
 4.118    8.9905
 4.114    8.9094
 4.111    8.8398
 4.108    8.7629
 4.105    8.6741
 4.101    8.5932
 4.098    8.5220
 4.095    8.4438
 4.092    8.3611
 4.088    8.2658
 4.085    8.1577
 4.082    8.0408
 4.079    7.9094
 4.076    7.7258
 4.072    7.4985
 4.069    7.2502
 4.066    6.9739
 4.063    6.6401
 4.060    6.2954
 4.056    6.0073
 4.053    5.7392
 4.050    5.4326
 4.047    5.1199
 4.044    4.8342
 4.041    4.5268
 4.038    4.1631
 4.034    3.8291
 4.031    3.5767
 4.028    3.3838
 4.025    3.2178
 4.022    3.0708
 4.019    2.9431
 4.016    2.8142
 4.013    2.6872
 4.009    2.5625
 4.006    2.4617
 4.003    2.3894
 4.000    2.3389
 3.997    2.3064
 3.994    2.2768
 3.991    2.2634
 3.988    2.2649
 3.985    2.2729
 3.982    2.2656
 3.979    2.2307
 3.976    2.1902
 3.973    2.1453
 3.969    2.0859
 3.966    2.0518
 3.963    2.0376
 3.960    2.0281
 3.957    2.0281
 3.954    2.0339
 3.951    2.0532
 3.948    2.1025
 3.945    2.1650
 3.942    2.2571
 3.939    2.3581
 3.936    2.4277
 3.933    2.4487
 3.930    2.4182
 3.927    2.3660
 3.924    2.3245
 3.921    2.3037
 3.918    2.3247
 3.916    2.3855
 3.913    2.4590
 3.910    2.5107
 3.907    2.5415
 3.904    2.5735
 3.901    2.5972
 3.898    2.6299
 3.895    2.6887
 3.892    2.7524
 3.889    2.8210
 3.886    2.8904
 3.883    2.9512
 3.880    3.0254
 3.877    3.0879
 3.875    3.1389
 3.872    3.1728
 3.869    3.2014
 3.866    3.2512
 3.863    3.3052
 3.860    3.3506
 3.857    3.4016
 3.854    3.4346
 3.852    3.4582
 3.849    3.4812
 3.846    3.4929
 3.843    3.4978
 3.840    3.4861
 3.837    3.4707
 3.834    3.4514
 3.832    3.4260
 3.829    3.4080
 3.826    3.3916
 3.823    3.3755
 3.820    3.3621
 3.817    3.3538
 3.815    3.3516
 3.812    3.3455
 3.809    3.3376
 3.806    3.3433
 3.803    3.3635
 3.801    3.3801
 3.798    3.4004
 3.795    3.4424
 3.792    3.5171
 3.790    3.6196
 3.787    3.7410
 3.784    3.8889
 3.781    4.0559
 3.779    4.2256
 3.776    4.3931
 3.773    4.5657
 3.770    4.7578
 3.768    4.9814
 3.765    5.2607
 3.762    5.6089
 3.759    6.0176
 3.757    6.4526
 3.754    6.8950
 3.751    7.3327
 3.748    7.7522
 3.746    8.1206
 3.743    8.4280
 3.740    8.6821
 3.738    8.8969
 3.735    9.0769
 3.732    9.2263
 3.730    9.3489
 3.727    9.4470
 3.724    9.5390
 3.722    9.6218
 3.719    9.6997
 3.716    9.7820
 3.714    9.8432
 3.711    9.9045
 3.708    9.9765
 3.706   10.0349
 3.703   10.0757
 3.700   10.1269
 3.698   10.1748
 3.695   10.2119
 3.692   10.2434
 3.690   10.2712
 3.687   10.2954
 3.685   10.3213
 3.682   10.3452
 3.679   10.3596
 3.677   10.3730
 3.674   10.3904
 3.671   10.4028
 3.669   10.4167
 3.666   10.4367
 3.664   10.4555
 3.661   10.4651
 3.659   10.4802
 3.656   10.4980
 3.653   10.5190
 3.651   10.5244
 3.648   10.5266
 3.646   10.5254
 3.643   10.5232
 3.641   10.5190
 3.638   10.5156
 3.635   10.5127
 3.633   10.5141
 3.630   10.5134
 3.628   10.5044
 3.625   10.4919
 3.623   10.4773
 3.620   10.4580
 3.618   10.4399
 3.615   10.4087
 3.613   10.3716
 3.610   10.3137
 3.608   10.2451
 3.605   10.1819
 3.603   10.1396
 3.600   10.1391
 3.598   10.1638
 3.595   10.1906
 3.593   10.2068
 3.590   10.2092
 3.588   10.1916
 3.585   10.1635
 3.583   10.1238
 3.580   10.0766
 3.578   10.0320
 3.575    9.9897
 3.573    9.9450
 3.570    9.8686
 3.568    9.7739
 3.565    9.6809
 3.563    9.5859
 3.561    9.4807
 3.558    9.3818
 3.556    9.2700
 3.553    9.1689
 3.551    9.0661
 3.548    8.9646
 3.546    8.8403
 3.544    8.6926
 3.541    8.5263
 3.539    8.3193
 3.536    8.0754
 3.534    7.8083
 3.531    7.5090
 3.529    7.1492
 3.527    6.7466
 3.524    6.3135
 3.522    5.8349
 3.519    5.3154
 3.517    4.8047
 3.515    4.3479
 3.512    3.9675
 3.510    3.6765
 3.508    3.4973
 3.505    3.4277
 3.503    3.4670
 3.500    3.5889
 3.498    3.7400
 3.496    3.8769
 3.493    3.9858
 3.491    4.0915
 3.489    4.1843
 3.486    4.2666
 3.484    4.3364
 3.482    4.3926
 3.479    4.4241
 3.477    4.4267
 3.475    4.3882
 3.472    4.3152
 3.470    4.2290
 3.468    4.1284
 3.465    4.0019
 3.463    3.8530
 3.461    3.6890
 3.458    3.5105
 3.456    3.3350
 3.454    3.1597
 3.452    3.0205
 3.449    2.9431
 3.447    2.9009
 3.445    2.8794
 3.442    2.8418
 3.440    2.7678
 3.438    2.6626
 3.435    2.5259
 3.433    2.3906
 3.431    2.2881
 3.429    2.2366
 3.426    2.2251
 3.424    2.2378
 3.422    2.2537
 3.420    2.2685
 3.417    2.2920
 3.415    2.3254
 3.413    2.3682
 3.411    2.4150
 3.408    2.4617
 3.406    2.4978
 3.404    2.5420
 3.402    2.5820
 3.399    2.6121
 3.397    2.6279
 3.395    2.6411
 3.393    2.6811
 3.391    2.7234
 3.388    2.7476
 3.386    2.7632
 3.384    2.7751
 3.382    2.7795
 3.380    2.7910
 3.377    2.7959
 3.375    2.8020
 3.373    2.8074
 3.371    2.8010
 3.369    2.7856
 3.366    2.7839
 3.364    2.7895
 3.362    2.7842
 3.360    2.7703
 3.358    2.7544
 3.355    2.7463
 3.353    2.7515
 3.351    2.7385
 3.349    2.7270
 3.347    2.7390
 3.345    2.7788
 3.342    2.8391
 3.340    2.9180
 3.338    3.0185
 3.336    3.1345
 3.334    3.2524
 3.332    3.3789
 3.330    3.5093
 3.327    3.6413
 3.325    3.7937
 3.323    3.9529
 3.321    4.1086
 3.319    4.2607
 3.317    4.4162
 3.315    4.5610
 3.313    4.6907
 3.310    4.8125
 3.308    4.9392
 3.306    5.0574
 3.304    5.1626
 3.302    5.2612
 3.300    5.3579
 3.298    5.4585
 3.296    5.5542
 3.294    5.6711
 3.292    5.8061
 3.289    5.9499
 3.287    6.1125
 3.285    6.3059
 3.283    6.5285
 3.281    6.7685
 3.279    7.0068
 3.277    7.2341
 3.275    7.4372
 3.273    7.6155
 3.271    7.7715
 3.269    7.9028
 3.267    8.0117
 3.265    8.0957
 3.263    8.1758
 3.260    8.2529
 3.258    8.3235
 3.256    8.3918
 3.254    8.4494
 3.252    8.5014
 3.250    8.5566
 3.248    8.6057
 3.246    8.6543
 3.244    8.7075
 3.242    8.7512
 3.240    8.7910
 3.238    8.8318
 3.236    8.8598
 3.234    8.8818
 3.232    8.9236
 3.230    8.9616
 3.228    8.9900
 3.226    9.0176
 3.224    9.0493
 3.222    9.0791
 3.220    9.1003
 3.218    9.1343
 3.216    9.1736
 3.214    9.2036
 3.212    9.2275
 3.210    9.2529
 3.208    9.2861
 3.206    9.3196
 3.204    9.3481
 3.202    9.3752
 3.200    9.4052
 3.198    9.4385
 3.196    9.4734
 3.194    9.5053
 3.192    9.5273
 3.190    9.5493
 3.188    9.5815
 3.186    9.6118
 3.184    9.6347
 3.182    9.6440
 3.180    9.6489
 3.179    9.6635
 3.177    9.6960
 3.175    9.7107
 3.173    9.7153
 3.171    9.7104
 3.169    9.7026
 3.167    9.7031
 3.165    9.7134
 3.163    9.7138
 3.161    9.7060
 3.159    9.7153
 3.157    9.7312
 3.155    9.7138
 3.153    9.6928
 3.151    9.6767
 3.150    9.6560
 3.148    9.6357
 3.146    9.5888
 3.144    9.5312
 3.142    9.4844
 3.140    9.4321
 3.138    9.3764
 3.136    9.3442
 3.134    9.3198
 3.132    9.3066
 3.131    9.2881
 3.129    9.2622
 3.127    9.2392
 3.125    9.2280
 3.123    9.2458
 3.121    9.2636
 3.119    9.2824
 3.117    9.3215
 3.115    9.3584
 3.114    9.3723
 3.112    9.3779
 3.110    9.3701
 3.108    9.3420
 3.106    9.3110
 3.104    9.2793
 3.102    9.2510
 3.101    9.2322
 3.099    9.2317
 3.097    9.2632
 3.095    9.3132
 3.093    9.3647
 3.091    9.4262
 3.089    9.4980
 3.088    9.5722
 3.086    9.6377
 3.084    9.7065
 3.082    9.7468
 3.080    9.7871
 3.078    9.8301
 3.077    9.8711
 3.075    9.9089
 3.073    9.9531
 3.071    9.9946
 3.069   10.0356
 3.068   10.0678
 3.066   10.1079
 3.064   10.1433
 3.062   10.1782
 3.060   10.2177
 3.058   10.2510
 3.057   10.2868
 3.055   10.3183
 3.053   10.3486
 3.051   10.3789
 3.050   10.3979
 3.048   10.4287
 3.046   10.4402
 3.044   10.4519
 3.042   10.4673
 3.041   10.4975
 3.039   10.5239
 3.037   10.5420
 3.035   10.5547
 3.033   10.5664
 3.032   10.5786
 3.030   10.5927
 3.028   10.6137
 3.026   10.6157
 3.025   10.6152
 3.023   10.6338
 3.021   10.6447
 3.019   10.6469
 3.018   10.6499
 3.016   10.6469
 3.014   10.6499
 3.012   10.6694
 3.011   10.6748
 3.009   10.6782
 3.007   10.6924
 3.005   10.7116
 3.004   10.7104
 3.002   10.7143
 3.000   10.7358
 2.998   10.7519
 2.997   10.7627
 2.995   10.7776
 2.993   10.7903
 2.991   10.8054
 2.990   10.8303
 2.988   10.8554
 2.986   10.8706
 2.985   10.8862
 2.983   10.8987
 2.981   10.9160
 2.979   10.9223
 2.978   10.9433
 2.976   10.9670
 2.974   10.9797
 2.973   10.9907
 2.971   10.9980
 2.969   11.0146
 2.967   11.0312
 2.966   11.0556
 2.964   11.0674
 2.962   11.0835
 2.961   11.0996
 2.959   11.1240
 2.957   11.1489
 2.956   11.1660
 2.954   11.1699
 2.952   11.1753
 2.951   11.1894
 2.949   11.2065
 2.947   11.2431
 2.946   11.2558
 2.944   11.2500
 2.942   11.2632
 2.941   11.2934
 2.939   11.3174
 2.937   11.3337
 2.936   11.3491
 2.934   11.3520
 2.932   11.3530
 2.931   11.3711
 2.929   11.3901
 2.927   11.3940
 2.926   11.4062
 2.924   11.4062
 2.922   11.4140
 2.921   11.4243
 2.919   11.4326
 2.917   11.4497
 2.916   11.4531
 2.914   11.4643
 2.912   11.4760
 2.911   11.4926
 2.909   11.5132
 2.908   11.5263
 2.906   11.5410
 2.904   11.5615
 2.903   11.5678
 2.901   11.5859
 2.899   11.5952
 2.898   11.6147
 2.896   11.6382
 2.895   11.6440
 2.893   11.6450
 2.891   11.6596
 2.890   11.6591
 2.888   11.6528
 2.887   11.6587
 2.885   11.6631
 2.883   11.6655
 2.882   11.6762
 2.880   11.6831
 2.878   11.6870
 2.877   11.6987
 2.875   11.7041
 2.874   11.7148
 2.872   11.7470
 2.871   11.7778
 2.869   11.7895
 2.867   11.8042
 2.866   11.8300
 2.864   11.8530
 2.863   11.8794
 2.861   11.9013
 2.859   11.9077
 2.858   11.9131
 2.856   11.9550
 2.855   11.9756
 2.853   11.9738
 2.852   11.9868
 2.850   11.9997
 2.848   12.0149
 2.847   11.9948
 2.845   11.9897
 2.844   11.9912
 2.842   11.9980
 2.841   11.9958
 2.839   12.0000
 2.838   12.0092
 2.836   12.0141
 2.834   12.0024
 2.833   12.0046
 2.831   12.0044
 2.830   11.9787
 2.828   11.9572
 2.827   11.9311
 2.825   11.9045
 2.824   11.8547
 2.822   11.7876
 2.821   11.7107
 2.819   11.6028
 2.817   11.4895
 2.816   11.3676
 2.814   11.2666
 2.813   11.1809
 2.811   11.0825
 2.810   11.0092
 2.808   10.9836
 2.807   10.9641
 2.805   10.9853
 2.804   11.0483
 2.802   11.0905
 2.801   11.1491
 2.799   11.2129
 2.798   11.2654
 2.796   11.3093
 2.795   11.3401
 2.793   11.3386
 2.792   11.3247
 2.790   11.2949
 2.789   11.2217
 2.787   11.1157
 2.786   10.9619
 2.784   10.7424
 2.783   10.5569
 2.781   10.5551
 2.780   10.7185
 2.778   10.9597
 2.777   11.2148
 2.775   11.4279
 2.774   11.6115
 2.772   11.7719
 2.771   11.8908
 2.769   11.9690
 2.768   12.0376
 2.766   12.1259
 2.765   12.1975
 2.763   12.2746
 2.762   12.3698
 2.760   12.4785
 2.759   12.5803
 2.758   12.6777
 2.756   12.7700
 2.755   12.8823
 2.753   12.9990
 2.752   13.0822
 2.750   13.1638
 2.749   13.2285
 2.747   13.2800
 2.746   13.3515
 2.744   13.4279
 2.743   13.4963
 2.741   13.5156
 2.740   13.5527
 2.739   13.6076
 2.737   13.6679
 2.736   13.7192
 2.734   13.7690
 2.733   13.8249
 2.731   13.8823
 2.730   13.9192
 2.729   13.9436
 2.727   13.9602
 2.726   13.9751
 2.724   13.9902
 2.723   14.0131
 2.721   14.0190
 2.720   14.0361
 2.718   14.0883
 2.717   14.0908
 2.716   14.1008
 2.714   14.1159
 2.713   14.1052
 2.711   14.0898
 2.710   14.1206
 2.709   14.1489
 2.707   14.1557
 2.706   14.1508
 2.704   14.1526
 2.703   14.1645
 2.701   14.1760
 2.700   14.1916
 2.699   14.2187
 2.697   14.2480
 2.696   14.2668
 2.694   14.2783
 2.693   14.3286
 2.692   14.3879
 2.690   14.4438
 2.689   14.4907
 2.687   14.5293
 2.686   14.5737
 2.685   14.6384
 2.683   14.6880
 2.682   14.7343
 2.681   14.7739
 2.679   14.8020
 2.678   14.8208
 2.676   14.8518
 2.675   14.8911
 2.674   14.9194
 2.672   14.9282
 2.671   14.9309
 2.669   14.9358
 2.668   14.9399
 2.667   14.9355
 2.665   14.9548
 2.664   14.9563
 2.663   14.9755
 2.661   14.9853
 2.660   14.9917
 2.659   15.0014
 2.657   15.0175
 2.656   15.0168
 2.654   15.0083
 2.653   15.0249
 2.652   15.0229
 2.650   15.0327
 2.649   15.0190
 2.648   15.0080
 2.646   15.0080
 2.645   14.9917
 2.644   14.9858
 2.642   14.9824
 2.641   14.9953
 2.640   14.9943
 2.638   14.9902
 2.637   14.9790
 2.636   14.9917
 2.634   14.9963
 2.633   15.0004
 2.632   14.9738
 2.630   14.9843
 2.629   15.0088
 2.628   15.0195
 2.626   14.9963
 2.625   14.9936
 2.624   15.0149
 2.622   15.0293
 2.621   15.0022
 2.620   14.9897
 2.618   15.0092
 2.617   14.9961
 2.616   15.0097
 2.614   15.0009
 2.613   14.9887
 2.612   14.9924
 2.610   14.9709
 2.609   14.9492
 2.608   14.9619
 2.606   14.9384
 2.605   14.9111
 2.604   14.9091
 2.602   14.8989
 2.601   14.9008
 2.600   14.9077
 2.599   14.9211
 2.597   14.9004
 2.596   14.8603
 2.595   14.8569
 2.593   14.8823
 2.592   14.8811
 2.591   14.8745
 2.589   14.8422
 2.588   14.7981
 2.587   14.7749
 2.586   14.7563
 2.584   14.6919
 2.583   14.6372
 2.582   14.5859
 2.580   14.4975
 2.579   14.4140
 2.578   14.3354
 2.577   14.2446
 2.575   14.1601
 2.574   14.0522
 2.573   13.9672
 2.572   13.8820
 2.570   13.7600
 2.569   13.6623
 2.568   13.5754
 2.566   13.4917
 2.565   13.4165
 2.564   13.3506
 2.563   13.3127
 2.561   13.2793
 2.560   13.2343
 2.559   13.1709
 2.558   13.1106
 2.556   13.0498
 2.555   13.0014
 2.554   12.9297
 2.553   12.8442
 2.551   12.7529
 2.550   12.6596
 2.549   12.5520
 2.547   12.4367
 2.546   12.3684
 2.545   12.3039
 2.544   12.2285
 2.542   12.1845
 2.541   12.1552
 2.540   12.1145
 2.539   12.0737
 2.538   12.0185
 2.536   11.9785
 2.535   11.9345
 2.534   11.8823
 2.533   11.8232
 2.531   11.7744
 2.530   11.7300
 2.529   11.6665
 2.528   11.5849
 2.526   11.4826
 2.525   11.3567
 2.524   11.2729
 2.523   11.2258
 2.521   11.1826
 2.520   11.1574
 2.519   11.1841
 2.518   11.2072
 2.517   11.2309
 2.515   11.2807
 2.514   11.3117
 2.513   11.3391
 2.512   11.3694
 2.510   11.4026
 2.509   11.4550
 2.508   11.4729
 2.507   11.5088
 2.506   11.5617
 2.504   11.6455
 2.503   11.7199
 2.502   11.7988
 2.501   11.8842
 2.500   11.9736
 2.498   12.0197
 2.497   12.0559
 2.496   12.1191
 2.495   12.1665
 2.494   12.2043
 2.492   12.2549
 2.491   12.2949
 2.490   12.3300
 2.489   12.4045
 2.488   12.4565
 2.486   12.4729
 2.485   12.5254
 2.484   12.5598
 2.483   12.5820
 2.482   12.6191
 2.480   12.6633
 2.479   12.7119
 2.478   12.7412
 2.477   12.7685
 2.476   12.8059
 2.475   12.8115
 2.473   12.8293
 2.472   12.8554
 2.471   12.8723
 2.470   12.9052
 2.469   12.9189
 2.467   12.9250
 2.466   12.9602
 2.465   12.9787
 2.464   12.9983
 2.463   13.0107
 2.462   13.0459
 2.460   13.0996
 2.459   13.1396
 2.458   13.1562
 2.457   13.1916
 2.456   13.2404
 2.455   13.2619
 2.453   13.2863
 2.452   13.3486
 2.451   13.4006
 2.450   13.4445
 2.449   13.4658
 2.448   13.5146
 2.447   13.5920
 2.445   13.6350
 2.444   13.6884
 2.443   13.7268
 2.442   13.7714
 2.441   13.8266
 2.440   13.8589
 2.438   13.8857
 2.437   13.9426
 2.436   14.0002
 2.435   14.0634
 2.434   14.1027
 2.433   14.1191
 2.432   14.1484
 2.430   14.1965
 2.429   14.2541
 2.428   14.2793
 2.427   14.2890
 2.426   14.3430
 2.425   14.3935
 2.424   14.4067
 2.423   14.4292
 2.421   14.4873
 2.420   14.5112
 2.419   14.5234
 2.418   14.5214
 2.417   14.5488
 2.416   14.5678
 2.415   14.5908
 2.413   14.6396
 2.412   14.6421
 2.411   14.6240
 2.410   14.6367
 2.409   14.6567
 2.408   14.6460
 2.407   14.6611
 2.406   14.6953
 2.405   14.7251
 2.403   14.7299
 2.402   14.7050
 2.401   14.6709
 2.400   14.6958
 2.399   14.7270
 2.398   14.7426
 2.397   14.7509
 2.396   14.7338
 2.395   14.7119
 2.393   14.7329
 2.392   14.7749
 2.391   14.7524
 2.390   14.7353
 2.389   14.7392
 2.388   14.7402
 2.387   14.7470
 2.386   14.7505
 2.385   14.7627
 2.384   14.7622
 2.382   14.7880
 2.381   14.8120
 2.380   14.7822
 2.379   14.7539
 2.378   14.7465
 2.377   14.7519
 2.376   14.7192
 2.375   14.6865
 2.374   14.6582
 2.373   14.6367
 2.372   14.6255
 2.370   14.6025
 2.369   14.5561
 2.368   14.5117
 2.367   14.4638
 2.366   14.4106
 2.365   14.3891
 2.364   14.3208
 2.363   14.2324
 2.362   14.1845
 2.361   14.1425
 2.360   14.0844
 2.359   14.0527
 2.358   14.0009
 2.356   13.9355
 2.355   13.8525
 2.354   13.7954
 2.353   13.7441
 2.352   13.6880
 2.351   13.6308
 2.350   13.5747
 2.349   13.5146
 2.348   13.4731
 2.347   13.4990
 2.346   13.4780
 2.345   13.4355
 2.344   13.4282
 2.343   13.4087
 2.342   13.3813
 2.340   13.3803
 2.339   13.3789
 2.338   13.3501
 2.337   13.2973
 2.336   13.2910
 2.335   13.2968
 2.334   13.3037
 2.333   13.2841
 2.332   13.2509
 2.331   13.2436
 2.330   13.2397
 2.329   13.2275
 2.328   13.2334
 2.327   13.2343
 2.326   13.2221
 2.325   13.2177
 2.324   13.2192
 2.323   13.1757
 2.322   13.1411
 2.321   13.1631
 2.320   13.1372
 2.318   13.1030
 2.317   13.1074
 2.316   13.1211
 2.315   13.1357
 2.314   13.1572
 2.313   13.1884
 2.312   13.1977
 2.311   13.1875
 2.310   13.1880
 2.309   13.1801
 2.308   13.1860
 2.307   13.2212
 2.306   13.2382
 2.305   13.2304
 2.304   13.2168
 2.303   13.2177
 2.302   13.2011
 2.301   13.2168
 2.300   13.2431
 2.299   13.2348
 2.298   13.2661
 2.297   13.3012
 2.296   13.3105
 2.295   13.2944
 2.294   13.2822
 2.293   13.3017
 2.292   13.3510
 2.291   13.3906
 2.290   13.3808
 2.289   13.3989
 2.288   13.4140
 2.287   13.4243
 2.286   13.4589
 2.285   13.4775
 2.284   13.4824
 2.283   13.4902
 2.282   13.5293
 2.281   13.5532
 2.280   13.5703
 2.279   13.5551
 2.278   13.5781
 2.277   13.6386
 2.276   13.6762
 2.275   13.6855
 2.274   13.6567
 2.273   13.7011
 2.272   13.7212
 2.271   13.7426
 2.270   13.7636
 2.269   13.7802
 2.268   13.8047
 2.267   13.8632
 2.266   13.8906
 2.265   13.8857
 2.264   13.9287
 2.263   13.9472
 2.262   13.9511
 2.261   13.9790
 2.260   13.9887
 2.259   13.9809
 2.258   13.9751
 2.257   13.9985
 2.256   14.0322
 2.255   14.0566
 2.254   14.0547
 2.253   14.0395
 2.252   14.0488
 2.251   14.0713
 2.250   14.0781
 2.249   14.0947
 2.248   14.1235
 2.247   14.1528
 2.246   14.1704
 2.245   14.2119
 2.244   14.2212
 2.243   14.2138
 2.242   14.2275
 2.241   14.2568
 2.240   14.2705
 2.239   14.2744
 2.238   14.3232
 2.237   14.3681
 2.236   14.3681
 2.236   14.3974
 2.235   14.4277
 2.234   14.4599
 2.233   14.4560
 2.232   14.4126
 2.231   14.4106
 2.230   14.4380
 2.229   14.4340
 2.228   14.4614
 2.227   14.4770
 2.226   14.4589
 2.225   14.4785
 2.224   14.4785
 2.223   14.5083
 2.222   14.5341
 2.221   14.5532
 2.220   14.5595
 2.219   14.5434
 2.218   14.5488
 2.217   14.6015
 2.216   14.6113
 2.215   14.5947
 2.215   14.6211
 2.214   14.6611
 2.213   14.6572
 2.212   14.6665
 2.211   14.6743
 2.210   14.6523
 2.209   14.6582
 2.208   14.6665
 2.207   14.6880
 2.206   14.6762
 2.205   14.6543
 2.204   14.7041
 2.203   14.7109
 2.202   14.7246
 2.201   14.7485
 2.200   14.7480
 2.199   14.7285
 2.199   14.7421
 2.198   14.7851
 2.197   14.8154
 2.196   14.8203
 2.195   14.8291
 2.194   14.8154
 2.193   14.7832
 2.192   14.7739
 2.191   14.7832
 2.190   14.8090
 2.189   14.8032
 2.188   14.7973
 2.187   14.7968
 2.186   14.8051
 2.186   14.8125
 2.185   14.8203
 2.184   14.8252
 2.183   14.8422
 2.182   14.8320
 2.181   14.7949
 2.180   14.7744
 2.179   14.7744
 2.178   14.8090
 2.177   14.7744
 2.176   14.7661
 2.175   14.7822
 2.175   14.7754
 2.174   14.7837
 2.173   14.8032
 2.172   14.8007
 2.171   14.7895
 2.170   14.7949
 2.169   14.8247
 2.168   14.7949
 2.167   14.7797
 2.166   14.8125
 2.165   14.7910
 2.165   14.7793
 2.164   14.8339
 2.163   14.8247
 2.162   14.7895
 2.161   14.8090
 2.160   14.8422
 2.159   14.8188
 2.158   14.8130
 2.157   14.8110
 2.156   14.7988
 2.156   14.8203
 2.155   14.8349
 2.154   14.8188
 2.153   14.7778
 2.152   14.7407
 2.151   14.7602
 2.150   14.7841
 2.149   14.7797
 2.148   14.7959
 2.148   14.7402
 2.147   14.7329
 2.146   14.7402
 2.145   14.7407
 2.144   14.7978
 2.143   14.7837
 2.142   14.7871
 2.141   14.8266
 2.140   14.8422
 2.140   14.8559
 2.139   14.8422
 2.138   14.8466
 2.137   14.8598
 2.136   14.8711
 2.135   14.8838
 2.134   14.8989
 2.133   14.9101
 2.133   14.9047
 2.132   14.8847
 2.131   14.8730
 2.130   14.8930
 2.129   14.8808
 2.128   14.9316
 2.127   14.9243
 2.126   14.9394
 2.126   14.9751
 2.125   14.9804
 2.124   14.9692
 2.123   14.9223
 2.122   14.9633
 2.121   15.0136
 2.120   14.9770
 2.119   14.9907
 2.119   15.0297
 2.118   15.0258
 2.117   15.0039
 2.116   15.0078
 2.115   15.0044
 2.114   15.0180
 2.113   15.0078
 2.113   15.0214
 2.112   15.0239
 2.111   15.0058
 2.110   15.0122
 2.109   15.0175
 2.108   15.0234
 2.107   15.0195
 2.107   15.0161
 2.106   14.9926
 2.105   14.9746
 2.104   14.9804
 2.103   15.0107
 2.102   15.0273
 2.101   15.0136
 2.101   14.9834
 2.100   15.0004
 2.099   15.0415
 2.098   15.0981
 2.097   15.0420
 2.096   15.0376
 2.095   15.1040
 2.095   15.0883
 2.094   15.0488
 2.093   15.0903
 2.092   15.1001
 2.091   15.1093
 2.090   15.1250
 2.090   15.1250
 2.089   15.1416
 2.088   15.1250
 2.087   15.0859
 2.086   15.0649
 2.085   15.0610
 2.085   15.0820
 2.084   15.1015
 2.083   15.1098
 2.082   15.1113
 2.081   15.1015
 2.080   15.0644
 2.079   15.0820
