Name: Gray Slate
Type:  Rocks
Class:  Metamorphic 
Subclass: Slate
Particle Size:  500-1500 Micrometer
Sample No.:   slate1.doc
Owner:  JHU
Wavelength Range:  All
Origin:  Sample No. 307, The Hunt and Salisbury Collection at the U.S. 
Geological Survey, Denver, Co.
Description: This is a light gray somewhat banded rock.  It is fine-grained to 
microcrystalline and consists of carbonate, quartz, some feldspar and clay.  
Abundant carbonaceous granules are scattered in discontinuous bands 
throughout the section.


Measurement:  Directional (10 Degree) Hemispherical Reflectance
First Column:  X
Second Column:  Y  
X Units:  Wavelength (micrometers)
Y Units:  Reflectance (percent)
First X Value: 14.0112	
Last X Value:  0.4
Number of X Values: 2844
Additional Information:  None

14.0112	2.8711
13.9734	2.8845
13.9359	2.9086
13.8985	2.9426
13.8614	2.9805
13.8244	3.0154
13.7876	3.0424
13.7511	3.0615
13.7147	3.0773
13.6785	3.0969
13.6425	3.1259
13.6067	3.1644
13.5711	3.2084
13.5356	3.2527
13.5004	3.2912
13.4653	3.3218
13.4304	3.345
13.3957	3.3639
13.3612	3.3805
13.3269	3.395
13.2927	3.4075
13.2587	3.418
13.2249	3.4293
13.1912	3.4453
13.1577	3.4709
13.1244	3.5097
13.0913	3.5603
13.0583	3.6183
13.0255	3.6757
12.9929	3.724
12.9604	3.7552
12.9281	3.7633
12.8959	3.7444
12.8639	3.6996
12.8321	3.6336
12.8004	3.5556
12.7688	3.4781
12.7375	3.4126
12.7063	3.3661
12.6752	3.3372
12.6443	3.3161
12.6135	3.2879
12.5829	3.2366
12.5524	3.1525
12.5221	3.0348
12.4919	2.8934
12.4619	2.7455
12.432	2.6112
12.4023	2.5076
12.3727	2.4457
12.3432	2.4275
12.3139	2.4469
12.2847	2.4928
12.2557	2.5519
12.2268	2.6134
12.198	2.6701
12.1694	2.7204
12.1409	2.7665
12.1125	2.8117
12.0843	2.8596
12.0562	2.9103
12.0282	2.9624
12.0003	3.0132
11.9726	3.0599
11.945	3.1012
11.9176	3.1381
11.8903	3.1724
11.8631	3.2066
11.836	3.2424
11.809	3.2806
11.7822	3.3214
11.7555	3.3633
11.7289	3.4053
11.7024	3.447
11.676	3.4891
11.6498	3.5336
11.6237	3.5829
11.5977	3.6391
11.5718	3.7022
11.546	3.7714
11.5203	3.8441
11.4948	3.918
11.4694	3.991
11.444	4.0621
11.4188	4.1305
11.3937	4.1956
11.3688	4.2566
11.3439	4.3119
11.3191	4.3605
11.2944	4.4026
11.2699	4.4404
11.2455	4.4761
11.2211	4.5121
11.1969	4.5506
11.1727	4.5906
11.1487	4.6301
11.1248	4.6653
11.101	4.694
11.0773	4.7143
11.0536	4.726
11.0301	4.7301
11.0067	4.7289
10.9834	4.7254
10.9602	4.7227
10.937	4.7246
10.914	4.7352
10.8911	4.7564
10.8682	4.7883
10.8455	4.8301
10.8229	4.8804
10.8003	4.9373
10.7779	5.0003
10.7555	5.0691
10.7332	5.1443
10.7111	5.2252
10.689	5.31
10.667	5.3974
10.6451	5.485
10.6233	5.5706
10.6015	5.6527
10.5799	5.7309
10.5584	5.8063
10.5369	5.8812
10.5155	5.9594
10.4942	6.0455
10.473	6.1415
10.4519	6.2475
10.4309	6.3614
10.4099	6.4794
10.3891	6.5978
10.3683	6.7148
10.3476	6.8303
10.327	6.9447
10.3065	7.0585
10.286	7.1711
10.2656	7.2811
10.2454	7.3878
10.2251	7.4899
10.205	7.5878
10.185	7.6818
10.165	7.7728
10.1451	7.8611
10.1253	7.9489
10.1056	8.0385
10.0859	8.1343
10.0663	8.2386
10.0468	8.3534
10.0274	8.4774
10.008	8.6066
9.9887	8.7353
9.9695	8.858
9.9504	8.9707
9.9313	9.0705
9.9123	9.1563
9.8934	9.2284
9.8746	9.2875
9.8558	9.3384
9.8371	9.3897
9.8185	9.4536
9.7999	9.5454
9.7814	9.6785
9.763	9.861
9.7447	10.0933
9.7264	10.3659
9.7082	10.6632
9.69	10.9661
9.6719	11.2566
9.6539	11.5198
9.636	11.7456
9.6181	11.9301
9.6003	12.0722
9.5825	12.1737
9.5649	12.238
9.5472	12.2693
9.5297	12.2734
9.5122	12.2593
9.4948	12.2387
9.4774	12.2256
9.4601	12.2342
9.4429	12.2729
9.4257	12.3418
9.4086	12.4306
9.3916	12.5191
9.3746	12.5837
9.3577	12.6034
9.3408	12.5677
9.324	12.4811
9.3073	12.3609
9.2906	12.2344
9.274	12.1301
9.2574	12.0711
9.2409	12.0696
9.2245	12.126
9.2081	12.2311
9.1918	12.3691
9.1755	12.5244
9.1593	12.6821
9.1431	12.8313
9.127	12.9636
9.111	13.0737
9.095	13.1577
9.0791	13.2142
9.0632	13.2446
9.0474	13.2529
9.0316	13.2458
9.0159	13.23
9.0003	13.2125
8.9847	13.1972
8.9691	13.1857
8.9536	13.1778
8.9382	13.1718
8.9228	13.1661
8.9075	13.1596
8.8922	13.1512
8.877	13.1397
8.8618	13.1228
8.8467	13.0984
8.8316	13.0647
8.8166	13.023
8.8016	12.9769
8.7867	12.9324
8.7718	12.8914
8.757	12.8471
8.7422	12.7792
8.7275	12.6543
8.7129	12.4361
8.6982	12.1026
8.6837	11.6636
8.6692	11.1707
8.6547	10.7089
8.6403	10.3737
8.6259	10.2395
8.6116	10.3314
8.5973	10.6159
8.583	11.0109
8.5688	11.4171
8.5547	11.7485
8.5406	11.9531
8.5266	12.0205
8.5126	11.972
8.4986	11.8435
8.4847	11.6693
8.4708	11.4734
8.457	11.2687
8.4432	11.0614
8.4295	10.8532
8.4158	10.6472
8.4022	10.4472
8.3886	10.2581
8.375	10.0854
8.3615	9.934
8.3481	9.8076
8.3347	9.7093
8.3213	9.6402
8.3079	9.6002
8.2946	9.588
8.2814	9.6016
8.2682	9.6387
8.255	9.6969
8.2419	9.7725
8.2288	9.8596
8.2158	9.9493
8.2028	10.0278
8.1898	10.0787
8.1769	10.0849
8.164	10.033
8.1512	9.9167
8.1384	9.7387
8.1256	9.5092
8.1129	9.2446
8.1002	8.9626
8.0876	8.6798
8.075	8.4089
8.0624	8.1601
8.0499	7.9386
8.0374	7.7464
8.025	7.5819
8.0126	7.438
8.0002	7.306
7.9879	7.1746
7.9756	7.0351
7.9634	6.882
7.9512	6.7162
7.939	6.5423
7.9268	6.368
7.9147	6.2004
7.9027	6.0443
7.8906	5.9024
7.8786	5.7749
7.8667	5.6618
7.8548	5.5637
7.8429	5.4838
7.831	5.4247
7.8192	5.3888
7.8075	5.3769
7.7957	5.3862
7.784	5.4118
7.7723	5.4469
7.7607	5.4853
7.7491	5.5213
7.7375	5.5515
7.726	5.5739
7.7145	5.5881
7.7031	5.5938
7.6916	5.5902
7.6802	5.5771
7.6689	5.5543
7.6575	5.5223
7.6462	5.4828
7.635	5.4398
7.6238	5.3974
7.6126	5.3606
7.6014	5.3326
7.5903	5.3151
7.5792	5.3075
7.5681	5.3065
7.5571	5.3077
7.5461	5.3065
7.5351	5.2989
7.5242	5.2821
7.5133	5.2551
7.5024	5.2192
7.4916	5.177
7.4807	5.1321
7.47	5.0876
7.4592	5.0466
7.4485	5.0105
7.4378	4.9782
7.4272	4.9481
7.4165	4.9168
7.4059	4.8821
7.3954	4.8419
7.3848	4.7952
7.3743	4.7428
7.3639	4.6864
7.3534	4.6273
7.343	4.5674
7.3326	4.5086
7.3223	4.4518
7.3119	4.3985
7.3016	4.3488
7.2914	4.3035
7.2811	4.2636
7.2709	4.2301
7.2607	4.203
7.2506	4.1827
7.2404	4.1698
7.2303	4.1638
7.2203	4.1647
7.2102	4.1728
7.2002	4.1882
7.1902	4.2115
7.1803	4.2418
7.1703	4.2794
7.1604	4.3232
7.1506	4.3725
7.1407	4.4256
7.1309	4.4812
7.1211	4.5385
7.1113	4.5942
7.1016	4.6457
7.0919	4.6897
7.0822	4.7239
7.0725	4.7466
7.0629	4.7579
7.0533	4.7601
7.0437	4.7559
7.0341	4.7485
7.0246	4.7402
7.0151	4.733
7.0056	4.7284
6.9962	4.727
6.9867	4.7299
6.9773	4.7368
6.9679	4.7481
6.9586	4.7641
6.9493	4.7851
6.94	4.8124
6.9307	4.8471
6.9214	4.8887
6.9122	4.9349
6.903	4.9828
6.8938	5.0278
6.8847	5.0675
6.8755	5.101
6.8664	5.1299
6.8573	5.157
6.8483	5.1847
6.8393	5.2132
6.8302	5.2409
6.8213	5.266
6.8123	5.2866
6.8034	5.3017
6.7944	5.3122
6.7855	5.3203
6.7767	5.3287
6.7678	5.3384
6.759	5.3493
6.7502	5.3615
6.7414	5.3742
6.7327	5.3867
6.7239	5.4003
6.7152	5.417
6.7065	5.439
6.6979	5.4675
6.6892	5.5017
6.6806	5.5381
6.672	5.5731
6.6634	5.6015
6.6549	5.6216
6.6464	5.6328
6.6378	5.6372
6.6294	5.6365
6.6209	5.6314
6.6124	5.6221
6.604	5.607
6.5956	5.5857
6.5872	5.5593
6.5789	5.5321
6.5705	5.5092
6.5622	5.4959
6.5539	5.4962
6.5456	5.512
6.5374	5.5422
6.5292	5.5837
6.5209	5.6338
6.5128	5.6893
6.5046	5.7479
6.4964	5.8075
6.4883	5.8656
6.4802	5.9178
6.4721	5.958
6.464	5.9793
6.456	5.975
6.448	5.9414
6.4399	5.879
6.432	5.791
6.424	5.684
6.416	5.5644
6.4081	5.4368
6.4002	5.3041
6.3923	5.1666
6.3844	5.0244
6.3766	4.8782
6.3687	4.7299
6.3609	4.5828
6.3531	4.4394
6.3454	4.3026
6.3376	4.1736
6.3299	4.0525
6.3221	3.9389
6.3144	3.8317
6.3068	3.7298
6.2991	3.6324
6.2914	3.5394
6.2838	3.4506
6.2762	3.3671
6.2686	3.2901
6.2611	3.2207
6.2535	3.1594
6.246	3.1065
6.2385	3.061
6.231	3.0225
6.2235	2.9898
6.216	2.9629
6.2086	2.9438
6.2011	2.9335
6.1937	2.9345
6.1863	2.9478
6.179	2.9737
6.1716	3.0099
6.1643	3.0524
6.157	3.0965
6.1496	3.1369
6.1424	3.1706
6.1351	3.197
6.1278	3.2177
6.1206	3.2355
6.1134	3.2527
6.1062	3.2697
6.099	3.285
6.0918	3.2951
6.0847	3.2967
6.0776	3.2886
6.0704	3.2721
6.0633	3.252
6.0563	3.2328
6.0492	3.2199
6.0421	3.2149
6.0351	3.2164
6.0281	3.2194
6.0211	3.2194
6.0141	3.212
6.0071	3.1958
6.0002	3.1726
5.9932	3.1455
5.9863	3.1183
5.9794	3.0931
5.9725	3.0701
5.9657	3.0486
5.9588	3.0285
5.952	3.0112
5.9451	3.0003
5.9383	2.9979
5.9315	3.0065
5.9247	3.0255
5.918	3.0512
5.9112	3.0797
5.9045	3.1077
5.8978	3.1334
5.8911	3.1573
5.8844	3.1817
5.8777	3.2087
5.8711	3.2398
5.8644	3.2738
5.8578	3.3082
5.8512	3.34
5.8446	3.3676
5.838	3.3903
5.8314	3.4099
5.8249	3.429
5.8184	3.4499
5.8118	3.4725
5.8053	3.4951
5.7988	3.5142
5.7923	3.5278
5.7859	3.5348
5.7794	3.5367
5.773	3.5359
5.7666	3.5362
5.7602	3.5389
5.7538	3.5439
5.7474	3.5505
5.741	3.557
5.7347	3.5625
5.7283	3.5661
5.722	3.5678
5.7157	3.5681
5.7094	3.5659
5.7031	3.5613
5.6969	3.5537
5.6906	3.5424
5.6844	3.5271
5.6782	3.508
5.6719	3.4848
5.6657	3.4575
5.6596	3.4267
5.6534	3.3929
5.6472	3.3578
5.6411	3.3223
5.6349	3.2879
5.6288	3.2549
5.6227	3.223
5.6166	3.1917
5.6106	3.1596
5.6045	3.1278
5.5984	3.0969
5.5924	3.0695
5.5864	3.0474
5.5804	3.0326
5.5744	3.0271
5.5684	3.0316
5.5624	3.0469
5.5564	3.0735
5.5505	3.1103
5.5445	3.1558
5.5386	3.2058
5.5327	3.2562
5.5268	3.3039
5.5209	3.3465
5.5151	3.384
5.5092	3.4185
5.5033	3.4522
5.4975	3.4874
5.4917	3.5243
5.4859	3.5625
5.4801	3.6003
5.4743	3.6365
5.4685	3.669
5.4628	3.6961
5.457	3.7164
5.4513	3.7286
5.4455	3.7317
5.4398	3.7248
5.4341	3.7077
5.4284	3.6817
5.4228	3.6478
5.4171	3.6063
5.4114	3.5587
5.4058	3.5054
5.4002	3.4472
5.3945	3.3865
5.3889	3.3247
5.3833	3.2654
5.3778	3.2113
5.3722	3.1651
5.3666	3.129
5.3611	3.1037
5.3555	3.0891
5.35	3.0847
5.3445	3.0888
5.339	3.0991
5.3335	3.1139
5.328	3.1316
5.3225	3.1508
5.3171	3.1711
5.3116	3.1922
5.3062	3.2142
5.3008	3.2374
5.2954	3.2622
5.29	3.2901
5.2846	3.3218
5.2792	3.3587
5.2738	3.4015
5.2684	3.4506
5.2631	3.5052
5.2578	3.5645
5.2524	3.6281
5.2471	3.6953
5.2418	3.7659
5.2365	3.8384
5.2312	3.9114
5.226	3.9827
5.2207	4.0501
5.2154	4.1112
5.2102	4.1645
5.205	4.2085
5.1998	4.243
5.1945	4.2676
5.1893	4.2842
5.1842	4.2945
5.179	4.3006
5.1738	4.3054
5.1686	4.3099
5.1635	4.315
5.1584	4.32
5.1532	4.3248
5.1481	4.3287
5.143	4.332
5.1379	4.3358
5.1328	4.3406
5.1277	4.3471
5.1227	4.3547
5.1176	4.3622
5.1126	4.3669
5.1075	4.3674
5.1025	4.3624
5.0975	4.3511
5.0925	4.3348
5.0875	4.3155
5.0825	4.2951
5.0775	4.2767
5.0726	4.2621
5.0676	4.2525
5.0627	4.2482
5.0577	4.2478
5.0528	4.249
5.0479	4.2495
5.043	4.2475
5.038	4.2422
5.0332	4.2354
5.0283	4.2291
5.0234	4.2256
5.0185	4.2264
5.0137	4.2322
5.0088	4.2422
5.004	4.2571
4.9992	4.2767
4.9944	4.3035
4.9896	4.3394
4.9848	4.3863
4.98	4.4444
4.9752	4.5126
4.9704	4.5883
4.9657	4.6674
4.9609	4.7463
4.9562	4.821
4.9514	4.8877
4.9467	4.9445
4.942	4.9907
4.9373	5.029
4.9326	5.0639
4.9279	5.1027
4.9232	5.1522
4.9186	5.2184
4.9139	5.3037
4.9092	5.407
4.9046	5.5245
4.9	5.6501
4.8953	5.7773
4.8907	5.9008
4.8861	6.0171
4.8815	6.1238
4.8769	6.2211
4.8723	6.3097
4.8678	6.3906
4.8632	6.4648
4.8586	6.5334
4.8541	6.5971
4.8495	6.6559
4.845	6.7098
4.8405	6.7586
4.836	6.8021
4.8315	6.8406
4.827	6.8746
4.8225	6.9042
4.818	6.9304
4.8135	6.9535
4.809	6.9746
4.8046	6.994
4.8001	7.0129
4.7957	7.0325
4.7913	7.0542
4.7868	7.0791
4.7824	7.1088
4.778	7.1432
4.7736	7.1832
4.7692	7.228
4.7648	7.276
4.7605	7.3253
4.7561	7.3749
4.7517	7.4227
4.7474	7.4692
4.7431	7.5139
4.7387	7.5579
4.7344	7.6012
4.7301	7.6433
4.7258	7.683
4.7215	7.7182
4.7172	7.7472
4.7129	7.768
4.7086	7.7804
4.7043	7.7852
4.7	7.7847
4.6958	7.7821
4.6915	7.7809
4.6873	7.7857
4.6831	7.7995
4.6788	7.8247
4.6746	7.8613
4.6704	7.9084
4.6662	7.9637
4.662	8.0235
4.6578	8.0857
4.6536	8.1494
4.6495	8.214
4.6453	8.2802
4.6411	8.3481
4.637	8.4178
4.6328	8.4882
4.6287	8.5576
4.6246	8.6252
4.6205	8.691
4.6163	8.7556
4.6122	8.8192
4.6081	8.8819
4.604	8.9427
4.6	9.0004
4.5959	9.0542
4.5918	9.1037
4.5877	9.1492
4.5837	9.1915
4.5796	9.2315
4.5756	9.2693
4.5716	9.3047
4.5675	9.3375
4.5635	9.3671
4.5595	9.3932
4.5555	9.4157
4.5515	9.4339
4.5475	9.4473
4.5435	9.4561
4.5395	9.4604
4.5356	9.4602
4.5316	9.4554
4.5276	9.4451
4.5237	9.4277
4.5197	9.4023
4.5158	9.3693
4.5119	9.3308
4.508	9.2911
4.504	9.2557
4.5001	9.2282
4.4962	9.2107
4.4923	9.2028
4.4884	9.2021
4.4846	9.2056
4.4807	9.2114
4.4768	9.2195
4.473	9.232
4.4691	9.2509
4.4652	9.2788
4.4614	9.3167
4.4576	9.3633
4.4537	9.4164
4.4499	9.4724
4.4461	9.5286
4.4423	9.5827
4.4385	9.6344
4.4347	9.6847
4.4309	9.7354
4.4271	9.7885
4.4233	9.8445
4.4196	9.9031
4.4158	9.9622
4.412	10.0203
4.4083	10.0766
4.4045	10.1311
4.4008	10.1854
4.3971	10.2412
4.3934	10.2995
4.3896	10.3606
4.3859	10.4228
4.3822	10.484
4.3785	10.5431
4.3748	10.5991
4.3711	10.6524
4.3674	10.7041
4.3638	10.7556
4.3601	10.8063
4.3564	10.8554
4.3528	10.9005
4.3491	10.9405
4.3455	10.9745
4.3418	11.0028
4.3382	11.0272
4.3346	11.0494
4.331	11.0712
4.3273	11.0924
4.3237	11.1123
4.3201	11.1291
4.3165	11.1417
4.3129	11.1497
4.3094	11.1547
4.3058	11.1587
4.3022	11.1647
4.2986	11.1745
4.2951	11.1891
4.2915	11.2076
4.288	11.2288
4.2844	11.2513
4.2809	11.2745
4.2774	11.2979
4.2738	11.3218
4.2703	11.3459
4.2668	11.3695
4.2633	11.3917
4.2598	11.4111
4.2563	11.4264
4.2528	11.4382
4.2493	11.4465
4.2458	11.4528
4.2424	11.4578
4.2389	11.4631
4.2354	11.469
4.232	11.4767
4.2285	11.4865
4.2251	11.4984
4.2216	11.5126
4.2182	11.5281
4.2148	11.5437
4.2113	11.5585
4.2079	11.5724
4.2045	11.5856
4.2011	11.5987
4.1977	11.6126
4.1943	11.6281
4.1909	11.6448
4.1875	11.6624
4.1841	11.6805
4.1808	11.6983
4.1774	11.7155
4.174	11.7318
4.1707	11.7459
4.1673	11.7578
4.164	11.7672
4.1606	11.7736
4.1573	11.7784
4.154	11.7827
4.1506	11.7887
4.1473	11.797
4.144	11.808
4.1407	11.821
4.1374	11.8342
4.1341	11.8461
4.1308	11.8559
4.1275	11.8631
4.1242	11.8689
4.1209	11.8734
4.1177	11.8779
4.1144	11.883
4.1111	11.8885
4.1079	11.8937
4.1046	11.8978
4.1014	11.8996
4.0981	11.8988
4.0949	11.8947
4.0917	11.8877
4.0884	11.8782
4.0852	11.8667
4.082	11.8533
4.0788	11.8372
4.0756	11.8176
4.0724	11.7934
4.0692	11.7635
4.066	11.728
4.0628	11.6858
4.0596	11.637
4.0565	11.5798
4.0533	11.5109
4.0501	11.4267
4.047	11.3231
4.0438	11.1982
4.0406	11.0524
4.0375	10.8898
4.0344	10.7168
4.0312	10.5415
4.0281	10.371
4.025	10.2108
4.0218	10.0622
4.0187	9.9242
4.0156	9.7914
4.0125	9.6571
4.0094	9.515
4.0063	9.3598
4.0032	9.1889
4.0001	9.0039
3.997	8.8099
3.994	8.6149
3.9909	8.4293
3.9878	8.263
3.9847	8.1245
3.9817	8.0196
3.9786	7.9512
3.9756	7.9187
3.9725	7.9197
3.9695	7.9505
3.9665	8.0077
3.9634	8.0888
3.9604	8.1926
3.9574	8.3187
3.9544	8.4663
3.9513	8.6331
3.9483	8.8147
3.9453	9.0038
3.9423	9.1905
3.9393	9.3653
3.9363	9.5195
3.9333	9.6488
3.9304	9.7531
3.9274	9.8361
3.9244	9.9036
3.9214	9.9615
3.9185	10.0136
3.9155	10.0615
3.9126	10.1055
3.9096	10.145
3.9067	10.1799
3.9037	10.2105
3.9008	10.2379
3.8979	10.262
3.8949	10.284
3.892	10.3041
3.8891	10.3227
3.8862	10.3412
3.8833	10.3606
3.8804	10.3816
3.8775	10.4049
3.8746	10.4295
3.8717	10.4555
3.8688	10.4821
3.8659	10.5091
3.863	10.5357
3.8601	10.5616
3.8573	10.5852
3.8544	10.6056
3.8515	10.6225
3.8487	10.6379
3.8458	10.6539
3.843	10.674
3.8401	10.702
3.8373	10.7398
3.8344	10.7878
3.8316	10.8446
3.8288	10.907
3.8259	10.9719
3.8231	11.0365
3.8203	11.0994
3.8175	11.1618
3.8147	11.2264
3.8119	11.2961
3.8091	11.3729
3.8063	11.4576
3.8035	11.5477
3.8007	11.6394
3.7979	11.7275
3.7951	11.8076
3.7924	11.877
3.7896	11.9351
3.7868	11.9825
3.7841	12.0213
3.7813	12.0533
3.7785	12.0801
3.7758	12.1021
3.773	12.1199
3.7703	12.1327
3.7676	12.1413
3.7648	12.1459
3.7621	12.1478
3.7594	12.1473
3.7566	12.1459
3.7539	12.1433
3.7512	12.1399
3.7485	12.1361
3.7458	12.1327
3.7431	12.1301
3.7404	12.1292
3.7377	12.1301
3.735	12.1325
3.7323	12.1356
3.7296	12.1383
3.7269	12.1395
3.7242	12.1387
3.7216	12.1361
3.7189	12.1313
3.7162	12.1249
3.7136	12.1174
3.7109	12.1096
3.7083	12.1021
3.7056	12.0961
3.703	12.0915
3.7003	12.0887
3.6977	12.087
3.695	12.0856
3.6924	12.0834
3.6898	12.0799
3.6872	12.0751
3.6845	12.0689
3.6819	12.0619
3.6793	12.0545
3.6767	12.0466
3.6741	12.0387
3.6715	12.0303
3.6689	12.0213
3.6663	12.0119
3.6637	12.0021
3.6611	11.9928
3.6585	11.9846
3.656	11.978
3.6534	11.9717
3.6508	11.965
3.6482	11.9554
3.6457	11.9416
3.6431	11.9224
3.6406	11.8988
3.638	11.8727
3.6355	11.8465
3.6329	11.8224
3.6304	11.8012
3.6278	11.7824
3.6253	11.7655
3.6227	11.748
3.6202	11.7281
3.6177	11.7049
3.6152	11.677
3.6127	11.6442
3.6101	11.6073
3.6076	11.5683
3.6051	11.5288
3.6026	11.4908
3.6001	11.4546
3.5976	11.4202
3.5951	11.3862
3.5926	11.3502
3.5901	11.3097
3.5876	11.2635
3.5852	11.2114
3.5827	11.1547
3.5802	11.0958
3.5777	11.0374
3.5753	10.9819
3.5728	10.9299
3.5704	10.8807
3.5679	10.8331
3.5654	10.786
3.563	10.7379
3.5605	10.6889
3.5581	10.6393
3.5557	10.5895
3.5532	10.54
3.5508	10.4902
3.5484	10.4404
3.5459	10.3909
3.5435	10.3428
3.5411	10.2972
3.5387	10.2543
3.5363	10.2137
3.5338	10.1727
3.5314	10.1285
3.529	10.0772
3.5266	10.0177
3.5242	9.9507
3.5218	9.8794
3.5195	9.8073
3.5171	9.7387
3.5147	9.6755
3.5123	9.6189
3.5099	9.5674
3.5075	9.5203
3.5052	9.4758
3.5028	9.4325
3.5004	9.3889
3.4981	9.3432
3.4957	9.2942
3.4934	9.2418
3.491	9.186
3.4887	9.1289
3.4863	9.0726
3.484	9.0202
3.4816	8.9752
3.4793	8.9413
3.477	8.9226
3.4746	8.9231
3.4723	8.9456
3.47	8.9898
3.4677	9.0518
3.4653	9.1248
3.463	9.1992
3.4607	9.266
3.4584	9.3193
3.4561	9.3576
3.4538	9.3825
3.4515	9.3985
3.4492	9.41
3.4469	9.4196
3.4446	9.4279
3.4423	9.4337
3.44	9.4347
3.4378	9.4296
3.4355	9.4186
3.4332	9.404
3.4309	9.388
3.4287	9.3729
3.4264	9.3585
3.4241	9.3439
3.4219	9.326
3.4196	9.303
3.4174	9.2738
3.4151	9.2398
3.4129	9.2028
3.4106	9.165
3.4084	9.1281
3.4061	9.0922
3.4039	9.0574
3.4017	9.0227
3.3994	8.9882
3.3972	8.9545
3.395	8.9224
3.3928	8.8925
3.3906	8.864
3.3883	8.8368
3.3861	8.8092
3.3839	8.7802
3.3817	8.749
3.3795	8.7147
3.3773	8.6783
3.3751	8.6406
3.3729	8.6025
3.3707	8.5652
3.3685	8.529
3.3663	8.4934
3.3641	8.457
3.362	8.418
3.3598	8.3747
3.3576	8.3262
3.3554	8.2739
3.3533	8.223
3.3511	8.1802
3.3489	8.1532
3.3468	8.1472
3.3446	8.1625
3.3425	8.1948
3.3403	8.2364
3.3382	8.2781
3.336	8.3126
3.3339	8.336
3.3317	8.3486
3.3296	8.3522
3.3274	8.3498
3.3253	8.3443
3.3232	8.337
3.321	8.3288
3.3189	8.3209
3.3168	8.3129
3.3147	8.3051
3.3126	8.297
3.3104	8.2882
3.3083	8.2787
3.3062	8.2689
3.3041	8.2596
3.302	8.2505
3.2999	8.2414
3.2978	8.2319
3.2957	8.2216
3.2936	8.2103
3.2915	8.1986
3.2894	8.1866
3.2874	8.1747
3.2853	8.1632
3.2832	8.1522
3.2811	8.1429
3.279	8.136
3.277	8.1321
3.2749	8.1323
3.2728	8.1355
3.2708	8.141
3.2687	8.1464
3.2666	8.1498
3.2646	8.1491
3.2625	8.1433
3.2605	8.1328
3.2584	8.1189
3.2564	8.1039
3.2543	8.0905
3.2523	8.0804
3.2503	8.0739
3.2482	8.0701
3.2462	8.0668
3.2442	8.0618
3.2421	8.0527
3.2401	8.0385
3.2381	8.0199
3.2361	7.9986
3.234	7.9763
3.232	7.9551
3.23	7.9355
3.228	7.9163
3.226	7.8964
3.224	7.8739
3.222	7.8481
3.22	7.8189
3.218	7.7879
3.216	7.7555
3.214	7.7235
3.212	7.6919
3.21	7.6608
3.208	7.6299
3.206	7.5995
3.204	7.5698
3.2021	7.5407
3.2001	7.5117
3.1981	7.482
3.1961	7.4519
3.1942	7.4208
3.1922	7.3895
3.1902	7.3588
3.1883	7.3304
3.1863	7.305
3.1844	7.2828
3.1824	7.2622
3.1805	7.2421
3.1785	7.2203
3.1766	7.195
3.1746	7.1655
3.1727	7.1329
3.1707	7.0985
3.1688	7.064
3.1669	7.0308
3.1649	6.9995
3.163	6.9696
3.1611	6.9394
3.1591	6.9081
3.1572	6.8756
3.1553	6.8416
3.1534	6.8071
3.1515	6.7727
3.1495	6.7392
3.1476	6.7061
3.1457	6.6724
3.1438	6.6368
3.1419	6.5987
3.14	6.5587
3.1381	6.5193
3.1362	6.4832
3.1343	6.4532
3.1324	6.4293
3.1305	6.4092
3.1286	6.3879
3.1268	6.3609
3.1249	6.3255
3.123	6.2827
3.1211	6.236
3.1192	6.1901
3.1174	6.1482
3.1155	6.1109
3.1136	6.0759
3.1117	6.0412
3.1099	6.0051
3.108	5.9673
3.1061	5.9285
3.1043	5.8905
3.1024	5.8531
3.1006	5.8173
3.0987	5.7829
3.0969	5.7505
3.095	5.7207
3.0932	5.6938
3.0913	5.669
3.0895	5.6438
3.0876	5.6166
3.0858	5.5857
3.084	5.552
3.0821	5.5168
3.0803	5.4838
3.0785	5.4556
3.0766	5.4325
3.0748	5.4139
3.073	5.397
3.0712	5.379
3.0694	5.3572
3.0675	5.3311
3.0657	5.3007
3.0639	5.2675
3.0621	5.233
3.0603	5.1993
3.0585	5.1674
3.0567	5.139
3.0549	5.1151
3.0531	5.0957
3.0513	5.0801
3.0495	5.0672
3.0477	5.0557
3.0459	5.0441
3.0441	5.0311
3.0423	5.0165
3.0406	5.0007
3.0388	4.985
3.037	4.9701
3.0352	4.9571
3.0334	4.9462
3.0317	4.9359
3.0299	4.9234
3.0281	4.9067
3.0264	4.8849
3.0246	4.8605
3.0228	4.8376
3.0211	4.82
3.0193	4.8115
3.0176	4.8112
3.0158	4.8157
3.014	4.8198
3.0123	4.8187
3.0105	4.8093
3.0088	4.7921
3.007	4.7699
3.0053	4.7463
3.0036	4.7249
3.0018	4.7065
3.0001	4.6916
2.9984	4.6796
2.9966	4.6701
2.9949	4.6624
2.9932	4.6567
2.9914	4.6525
2.9897	4.648
2.988	4.6416
2.9863	4.6325
2.9845	4.6215
2.9828	4.6097
2.9811	4.5999
2.9794	4.5928
2.9777	4.5878
2.976	4.583
2.9743	4.576
2.9726	4.566
2.9709	4.5533
2.9692	4.5397
2.9675	4.5275
2.9658	4.5179
2.9641	4.5104
2.9624	4.5038
2.9607	4.4958
2.959	4.4854
2.9573	4.4717
2.9556	4.4566
2.9539	4.4414
2.9523	4.4281
2.9506	4.4176
2.9489	4.4093
2.9472	4.4016
2.9455	4.3934
2.9439	4.3846
2.9422	4.376
2.9405	4.37
2.9389	4.3683
2.9372	4.3715
2.9355	4.3781
2.9339	4.3853
2.9322	4.3894
2.9306	4.3889
2.9289	4.3834
2.9272	4.3753
2.9256	4.3679
2.9239	4.3647
2.9223	4.3677
2.9207	4.3765
2.919	4.3901
2.9174	4.4057
2.9157	4.4208
2.9141	4.4339
2.9124	4.4437
2.9108	4.4509
2.9092	4.4562
2.9075	4.4605
2.9059	4.4653
2.9043	4.4717
2.9027	4.4809
2.901	4.4928
2.8994	4.5078
2.8978	4.5246
2.8962	4.5413
2.8946	4.5564
2.8929	4.5682
2.8913	4.576
2.8897	4.5806
2.8881	4.5837
2.8865	4.5885
2.8849	4.5974
2.8833	4.6102
2.8817	4.6263
2.8801	4.6414
2.8785	4.6517
2.8769	4.6547
2.8753	4.6507
2.8737	4.6427
2.8721	4.6354
2.8705	4.6325
2.8689	4.6363
2.8673	4.6469
2.8658	4.6612
2.8642	4.6751
2.8626	4.6844
2.861	4.6866
2.8594	4.6813
2.8579	4.6708
2.8563	4.6585
2.8547	4.6487
2.8531	4.6435
2.8516	4.6419
2.85	4.6414
2.8484	4.6387
2.8469	4.6316
2.8453	4.62
2.8437	4.6062
2.8422	4.5918
2.8406	4.578
2.8391	4.5634
2.8375	4.5473
2.836	4.5284
2.8344	4.5076
2.8329	4.4872
2.8313	4.4703
2.8298	4.4578
2.8282	4.4485
2.8267	4.4394
2.8252	4.4281
2.8236	4.4136
2.8221	4.3969
2.8205	4.3818
2.819	4.3712
2.8175	4.3662
2.8159	4.365
2.8144	4.3643
2.8129	4.36
2.8114	4.3497
2.8098	4.3332
2.8083	4.3119
2.8068	4.2887
2.8053	4.2657
2.8038	4.2457
2.8022	4.2291
2.8007	4.2171
2.7992	4.2093
2.7977	4.204
2.7962	4.1994
2.7947	4.1925
2.7932	4.1806
2.7917	4.1619
2.7902	4.1373
2.7887	4.1081
2.7872	4.0765
2.7857	4.0447
2.7842	4.0123
2.7827	3.9786
2.7812	3.9413
2.7797	3.8989
2.7782	3.8525
2.7767	3.8042
2.7752	3.7568
2.7738	3.7133
2.7723	3.6755
2.7708	3.6446
2.7693	3.6199
2.7678	3.6013
2.7664	3.5879
2.7649	3.5786
2.7634	3.5721
2.7619	3.5676
2.7605	3.5656
2.759	3.5678
2.7575	3.5759
2.7561	3.592
2.7546	3.6176
2.7531	3.6513
2.7517	3.6906
2.7502	3.7331
2.7488	3.7776
2.7473	3.8241
2.7458	3.875
2.7444	3.9334
2.7429	4.0033
2.7415	4.086
2.74	4.1827
2.7386	4.292
2.7371	4.4126
2.7357	4.5423
2.7343	4.6787
2.7328	4.822
2.7314	4.9739
2.7299	5.1378
2.7285	5.3187
2.7271	5.523
2.7256	5.7572
2.7242	6.0249
2.7228	6.3269
2.7213	6.6607
2.7199	7.0203
2.7185	7.3978
2.7171	7.7852
2.7156	8.1752
2.7142	8.5621
2.7128	8.941
2.7114	9.3074
2.71	9.6557
2.7085	9.9804
2.7071	10.2746
2.7057	10.5345
2.7043	10.7573
2.7029	10.9437
2.7015	11.0967
2.7001	11.2231
2.6987	11.3308
2.6973	11.4291
2.6959	11.527
2.6945	11.6312
2.6931	11.7456
2.6917	11.8701
2.6903	12.0002
2.6889	12.1305
2.6875	12.2557
2.6861	12.3717
2.6847	12.4761
2.6833	12.5687
2.6819	12.6509
2.6805	12.7256
2.6791	12.7948
2.6778	12.8601
2.6764	12.923
2.675	12.983
2.6736	13.0395
2.6722	13.0917
2.6709	13.1407
2.6695	13.1888
2.6681	13.2383
2.6667	13.2917
2.6654	13.3503
2.664	13.4139
2.6626	13.4793
2.6613	13.5419
2.6599	13.5982
2.6585	13.6453
2.6572	13.6822
2.6558	13.7102
2.6545	13.7326
2.6531	13.7539
2.6517	13.7755
2.6504	13.7977
2.649	13.819
2.6477	13.8362
2.6463	13.8485
2.645	13.8558
2.6436	13.8618
2.6423	13.8691
2.6409	13.8797
2.6396	13.8927
2.6382	13.9039
2.6369	13.9092
2.6356	13.9054
2.6342	13.8927
2.6329	13.8743
2.6315	13.8556
2.6302	13.8422
2.6289	13.8362
2.6275	13.8365
2.6262	13.8394
2.6249	13.841
2.6236	13.8384
2.6222	13.8309
2.6209	13.8211
2.6196	13.814
2.6183	13.8128
2.6169	13.8195
2.6156	13.8324
2.6143	13.8477
2.613	13.8595
2.6117	13.8633
2.6103	13.8588
2.609	13.8503
2.6077	13.845
2.6064	13.8494
2.6051	13.8656
2.6038	13.8896
2.6025	13.9114
2.6012	13.9197
2.5999	13.9087
2.5986	13.8815
2.5973	13.8492
2.596	13.8271
2.5947	13.8274
2.5934	13.8533
2.5921	13.898
2.5908	13.9478
2.5895	13.9899
2.5882	14.0171
2.5869	14.0306
2.5856	14.0374
2.5843	14.0458
2.583	14.0611
2.5817	14.0824
2.5805	14.1054
2.5792	14.1245
2.5779	14.137
2.5766	14.1439
2.5753	14.1494
2.5741	14.1581
2.5728	14.1729
2.5715	14.1937
2.5702	14.2169
2.569	14.2379
2.5677	14.2533
2.5664	14.2616
2.5651	14.2655
2.5639	14.2693
2.5626	14.2772
2.5613	14.2915
2.5601	14.3116
2.5588	14.3342
2.5575	14.3545
2.5563	14.3695
2.555	14.3784
2.5538	14.3818
2.5525	14.3815
2.5513	14.38
2.55	14.3787
2.5487	14.3775
2.5475	14.376
2.5462	14.3745
2.545	14.3734
2.5437	14.3724
2.5425	14.3712
2.5413	14.3693
2.54	14.3664
2.5388	14.3626
2.5375	14.3591
2.5363	14.3574
2.535	14.3597
2.5338	14.3662
2.5326	14.3765
2.5313	14.3885
2.5301	14.4002
2.5289	14.4097
2.5276	14.4172
2.5264	14.4227
2.5252	14.4281
2.5239	14.4349
2.5227	14.4423
2.5215	14.4504
2.5202	14.4578
2.519	14.4633
2.5178	14.4676
2.5166	14.471
2.5154	14.4753
2.5141	14.4806
2.5129	14.4866
2.5117	14.492
2.5105	14.4962
2.5093	14.4983
2.5081	14.4985
2.5068	14.4983
2.5056	14.4987
2.5044	14.5007
2.5032	14.5043
2.502	14.5083
2.5008	14.5124
2.4996	14.5158
2.4984	14.5179
2.4972	14.5191
2.496	14.5203
2.4948	14.5214
2.4936	14.5231
2.4924	14.5249
2.4912	14.526
2.49	14.5258
2.4888	14.5229
2.4876	14.5179
2.4864	14.511
2.4852	14.5038
2.484	14.4975
2.4828	14.494
2.4816	14.4947
2.4805	14.5002
2.4793	14.51
2.4781	14.5227
2.4769	14.5347
2.4757	14.5423
2.4745	14.5437
2.4734	14.5387
2.4722	14.5291
2.471	14.5186
2.4698	14.5105
2.4686	14.5062
2.4675	14.5047
2.4663	14.5038
2.4651	14.5014
2.464	14.4962
2.4628	14.488
2.4616	14.4779
2.4604	14.4674
2.4593	14.4572
2.4581	14.4477
2.4569	14.4404
2.4558	14.4358
2.4546	14.4351
2.4535	14.4378
2.4523	14.4427
2.4511	14.4487
2.45	14.4547
2.4488	14.46
2.4477	14.4653
2.4465	14.4713
2.4454	14.4786
2.4442	14.4868
2.4431	14.4949
2.4419	14.5023
2.4408	14.5081
2.4396	14.5124
2.4385	14.516
2.4373	14.5214
2.4362	14.5306
2.435	14.5456
2.4339	14.5679
2.4327	14.5968
2.4316	14.6298
2.4305	14.6624
2.4293	14.6897
2.4282	14.7088
2.427	14.7198
2.4259	14.7253
2.4248	14.7304
2.4236	14.7387
2.4225	14.7528
2.4214	14.7715
2.4202	14.7923
2.4191	14.8117
2.418	14.8275
2.4169	14.8393
2.4157	14.8476
2.4146	14.8538
2.4135	14.8591
2.4124	14.8639
2.4112	14.8682
2.4101	14.8722
2.409	14.8765
2.4079	14.8823
2.4068	14.8909
2.4056	14.9029
2.4045	14.9177
2.4034	14.9339
2.4023	14.9488
2.4012	14.9593
2.4001	14.9643
2.399	14.9643
2.3979	14.9615
2.3967	14.9578
2.3956	14.9555
2.3945	14.955
2.3934	14.9553
2.3923	14.9545
2.3912	14.9507
2.3901	14.9435
2.389	14.9323
2.3879	14.9165
2.3868	14.8962
2.3857	14.8718
2.3846	14.8445
2.3835	14.8155
2.3824	14.7875
2.3813	14.7613
2.3802	14.7366
2.3791	14.7128
2.3781	14.6889
2.377	14.6648
2.3759	14.6404
2.3748	14.616
2.3737	14.5903
2.3726	14.5609
2.3715	14.5253
2.3704	14.4811
2.3694	14.4301
2.3683	14.376
2.3672	14.3239
2.3661	14.2769
2.365	14.2368
2.364	14.2009
2.3629	14.1657
2.3618	14.1277
2.3607	14.0865
2.3597	14.0452
2.3586	14.0066
2.3575	13.974
2.3564	13.9487
2.3554	13.9295
2.3543	13.914
2.3532	13.9001
2.3522	13.8887
2.3511	13.8815
2.35	13.8807
2.349	13.8877
2.3479	13.9013
2.3468	13.9202
2.3458	13.9418
2.3447	13.9647
2.3436	13.9896
2.3426	14.0178
2.3415	14.0508
2.3405	14.088
2.3394	14.1287
2.3384	14.1707
2.3373	14.2128
2.3363	14.254
2.3352	14.2942
2.3342	14.3349
2.3331	14.3765
2.3321	14.4193
2.331	14.4633
2.33	14.5088
2.3289	14.5561
2.3279	14.6057
2.3268	14.6569
2.3258	14.7093
2.3247	14.76
2.3237	14.8069
2.3226	14.8488
2.3216	14.8868
2.3206	14.9231
2.3195	14.9613
2.3185	15.0031
2.3175	15.05
2.3164	15.1014
2.3154	15.1562
2.3144	15.2131
2.3133	15.2718
2.3123	15.3309
2.3113	15.3884
2.3102	15.4419
2.3092	15.4883
2.3082	15.5258
2.3071	15.5529
2.3061	15.5718
2.3051	15.5864
2.3041	15.6012
2.303	15.6201
2.302	15.646
2.301	15.678
2.3	15.7132
2.299	15.7477
2.2979	15.7771
2.2969	15.7999
2.2959	15.8153
2.2949	15.8259
2.2939	15.8347
2.2929	15.8445
2.2918	15.8568
2.2908	15.8716
2.2898	15.8874
2.2888	15.9018
2.2878	15.9116
2.2868	15.9156
2.2858	15.9139
2.2848	15.9078
2.2838	15.8986
2.2828	15.8893
2.2818	15.8814
2.2808	15.8747
2.2798	15.8687
2.2787	15.8618
2.2777	15.8522
2.2767	15.8384
2.2757	15.8192
2.2747	15.7944
2.2738	15.764
2.2728	15.7283
2.2718	15.6885
2.2708	15.6465
2.2698	15.6037
2.2688	15.5625
2.2678	15.5252
2.2668	15.4931
2.2658	15.4666
2.2648	15.4435
2.2638	15.4216
2.2628	15.3969
2.2618	15.3668
2.2609	15.3301
2.2599	15.2888
2.2589	15.2469
2.2579	15.2096
2.2569	15.1821
2.2559	15.1675
2.255	15.1656
2.254	15.1729
2.253	15.1837
2.252	15.1924
2.251	15.1957
2.2501	15.1945
2.2491	15.1922
2.2481	15.1938
2.2471	15.2033
2.2462	15.222
2.2452	15.2476
2.2442	15.2749
2.2433	15.2979
2.2423	15.3112
2.2413	15.3117
2.2403	15.2984
2.2394	15.2727
2.2384	15.2378
2.2374	15.1967
2.2365	15.1517
2.2355	15.1031
2.2345	15.0493
2.2336	14.9883
2.2326	14.9181
2.2317	14.8401
2.2307	14.7571
2.2297	14.6751
2.2288	14.5988
2.2278	14.5317
2.2269	14.4758
2.2259	14.431
2.225	14.3981
2.224	14.3782
2.2231	14.3737
2.2221	14.3865
2.2211	14.4172
2.2202	14.4631
2.2192	14.5206
2.2183	14.5851
2.2173	14.6542
2.2164	14.7258
2.2155	14.7995
2.2145	14.8763
2.2136	14.9562
2.2126	15.0395
2.2117	15.1258
2.2107	15.2141
2.2098	15.3024
2.2088	15.3892
2.2079	15.4732
2.207	15.5539
2.206	15.6316
2.2051	15.7084
2.2041	15.7859
2.2032	15.8641
2.2023	15.9413
2.2013	16.0154
2.2004	16.085
2.1995	16.1491
2.1985	16.2082
2.1976	16.2645
2.1967	16.3202
2.1957	16.3747
2.1948	16.4278
2.1939	16.4786
2.193	16.5262
2.192	16.5693
2.1911	16.6071
2.1902	16.6406
2.1893	16.67
2.1883	16.6968
2.1874	16.7221
2.1865	16.7482
2.1856	16.7752
2.1846	16.8018
2.1837	16.8257
2.1828	16.8454
2.1819	16.8597
2.181	16.8698
2.18	16.8767
2.1791	16.8829
2.1782	16.8889
2.1773	16.8944
2.1764	16.8994
2.1755	16.9047
2.1746	16.911
2.1736	16.9193
2.1727	16.9306
2.1718	16.9437
2.1709	16.9581
2.17	16.9722
2.1691	16.986
2.1682	17.0006
2.1673	17.0162
2.1664	17.0322
2.1655	17.0476
2.1646	17.0602
2.1637	17.0691
2.1628	17.0739
2.1619	17.0767
2.161	17.0801
2.1601	17.0856
2.1592	17.093
2.1583	17.1007
2.1574	17.1057
2.1565	17.1059
2.1556	17.1012
2.1547	17.0939
2.1538	17.0883
2.1529	17.0861
2.152	17.0883
2.1511	17.0937
2.1502	17.0987
2.1493	17.1009
2.1484	17.0985
2.1475	17.0913
2.1466	17.081
2.1458	17.0689
2.1449	17.0569
2.144	17.0473
2.1431	17.0418
2.1422	17.042
2.1413	17.0468
2.1404	17.0547
2.1396	17.0622
2.1387	17.0662
2.1378	17.066
2.1369	17.0626
2.136	17.0588
2.1352	17.0562
2.1343	17.0544
2.1334	17.0526
2.1325	17.0483
2.1316	17.0416
2.1308	17.0342
2.1299	17.03
2.129	17.0327
2.1281	17.0423
2.1273	17.0566
2.1264	17.0715
2.1255	17.0835
2.1247	17.0909
2.1238	17.0944
2.1229	17.0966
2.122	17.0987
2.1212	17.1012
2.1203	17.1035
2.1194	17.1064
2.1186	17.1122
2.1177	17.1231
2.1168	17.1404
2.116	17.1615
2.1151	17.1816
2.1143	17.1947
2.1134	17.1966
2.1125	17.1892
2.1117	17.1784
2.1108	17.171
2.11	17.1731
2.1091	17.187
2.1082	17.2103
2.1074	17.2373
2.1065	17.2612
2.1057	17.2782
2.1048	17.2856
2.104	17.2847
2.1031	17.2782
2.1023	17.2712
2.1014	17.2684
2.1005	17.2729
2.0997	17.2863
2.0988	17.3067
2.098	17.3285
2.0971	17.3454
2.0963	17.3526
2.0955	17.3466
2.0946	17.3298
2.0938	17.3089
2.0929	17.2918
2.0921	17.2863
2.0912	17.2959
2.0904	17.3208
2.0895	17.3562
2.0887	17.394
2.0879	17.4268
2.087	17.4478
2.0862	17.4521
2.0853	17.4438
2.0845	17.4196
2.0837	17.3869
2.0828	17.3715
2.082	17.3371
2.0812	17.3543
2.0803	17.4254
2.0795	17.3926
2.076	17.4907
2.072	17.4165
2.068	17.524
2.064	17.4734
2.06	17.4189
2.056	17.5305
2.052	17.5602
2.048	17.59
2.044	17.5862
2.04	17.542
2.036	17.6072
2.032	17.6447
2.028	17.6305
2.024	17.6162
2.02	17.5505
2.016	17.537
2.012	17.5465
2.008	17.3603
2.004	17.4357
2	17.3116
1.996	17.4203
1.992	17.4723
1.988	17.6423
1.984	17.7746
1.98	17.7154
1.976	17.6772
1.972	17.8131
1.968	17.7781
1.964	17.7956
1.96	17.7326
1.956	17.7886
1.952	17.9024
1.948	17.8931
1.944	17.9357
1.94	17.8806
1.936	17.8811
1.932	17.8997
1.928	17.8715
1.924	17.9044
1.92	17.9326
1.916	18.0092
1.912	17.824
1.908	17.8423
1.904	17.7885
1.9	17.7919
1.896	17.8977
1.892	17.9282
1.888	17.951
1.884	17.9613
1.88	18.0538
1.876	18.0571
1.872	18.1478
1.868	18.084
1.864	18.032
1.86	18.1916
1.856	18.2199
1.852	18.237
1.848	18.2824
1.844	18.301
1.84	18.3247
1.836	18.1918
1.832	18.2341
1.828	18.4167
1.824	18.3124
1.82	18.3367
1.816	18.4019
1.812	18.2825
1.808	18.3024
1.804	18.3922
1.8	18.3911
1.796	18.4847
1.792	18.5777
1.788	18.5141
1.784	18.4117
1.78	18.4484
1.776	18.404
1.772	18.5067
1.768	18.4749
1.764	18.4798
1.76	18.5371
1.756	18.4626
1.752	18.4602
1.748	18.5511
1.744	18.3911
1.74	18.3318
1.736	18.4087
1.732	18.4453
1.728	18.6117
1.724	18.6246
1.72	18.6192
1.716	18.6272
1.712	18.4494
1.708	18.4693
1.704	18.6317
1.7	18.4939
1.696	18.7867
1.692	18.6539
1.688	18.6413
1.684	18.586
1.68	18.486
1.676	18.5535
1.672	18.5832
1.668	18.6833
1.664	18.6813
1.66	18.4752
1.656	18.6032
1.652	18.4671
1.648	18.5774
1.644	18.6984
1.64	18.5734
1.636	18.4906
1.632	18.3725
1.628	18.3881
1.624	18.4471
1.62	18.4475
1.616	18.5166
1.612	18.6361
1.608	18.4521
1.604	18.4521
1.6	18.6614
1.596	18.4715
1.592	18.6215
1.588	18.6215
1.584	18.6715
1.58	18.5839
1.576	18.6262
1.572	18.4844
1.568	18.4168
1.564	18.4142
1.56	18.3225
1.556	18.2609
1.552	18.2609
1.548	18.3079
1.544	18.3256
1.54	18.2139
1.536	18.4493
1.532	18.464
1.528	18.4566
1.524	18.3841
1.52	18.4732
1.516	18.3527
1.512	18.408
1.508	18.4535
1.504	18.5237
1.5	18.5132
1.496	18.4004
1.492	18.3196
1.488	18.2001
1.484	18.3251
1.48	18.2512
1.476	18.1746
1.472	18.1332
1.468	18.1746
1.464	18.1746
1.46	18.0725
1.456	18.1055
1.452	18.1445
1.448	18.1917
1.444	18.1966
1.44	18.2187
1.436	18.1708
1.432	18.1158
1.428	18.1012
1.424	18.0319
1.42	17.8371
1.416	17.7524
1.412	17.4378
1.408	17.1937
1.404	17.0714
1.4	17.2362
1.396	17.2239
1.392	17.4135
1.388	17.6559
1.384	17.8005
1.38	18.0297
1.376	18.122
1.372	18.1755
1.368	18.0799
1.364	17.9789
1.36	18.0138
1.356	18.0692
1.352	18.0519
1.348	18.0214
1.344	17.9756
1.34	17.9886
1.336	18.0285
1.332	17.8098
1.328	17.8909
1.324	17.9122
1.32	17.8391
1.316	17.8391
1.312	17.7872
1.308	17.6506
1.304	17.7634
1.3	17.7302
1.296	17.7563
1.292	17.6257
1.288	17.6275
1.284	17.6646
1.28	17.5341
1.276	17.393
1.272	17.516
1.268	17.4276
1.264	17.4008
1.26	17.4405
1.256	17.4207
1.252	17.5371
1.248	17.2705
1.244	17.206
1.24	17.1055
1.236	17.1895
1.232	17.1895
1.228	17.0348
1.224	17.1966
1.22	17.2064
1.216	17.0744
1.212	17.0294
1.208	16.9962
1.204	17.007
1.2	17.0004
1.196	16.9942
1.192	16.9237
1.188	16.8331
1.184	16.8666
1.18	16.8601
1.176	16.8366
1.172	16.8095
1.168	16.7989
1.164	16.8018
1.16	16.8113
1.156	16.8089
1.152	16.719
1.148	16.6655
1.144	16.5615
1.14	16.5807
1.136	16.5466
1.132	16.5871
1.128	16.4688
1.124	16.5955
1.12	16.5732
1.116	16.4284
1.112	16.4997
1.108	16.553
1.104	16.6213
1.1	16.4981
1.096	16.4854
1.092	16.5196
1.088	16.5666
1.084	16.5887
1.08	16.5296
1.076	16.467
1.072	16.4332
1.068	16.4961
1.064	16.6737
1.06	16.7128
1.056	16.7192
1.052	16.7664
1.048	16.7128
1.044	16.598
1.04	16.771
1.036	16.6491
1.032	16.8119
1.028	16.7431
1.024	16.7951
1.02	16.7161
1.016	16.7695
1.012	16.8711
1.008	16.8064
1.004	16.9216
1	16.9216
0.996	16.8085
0.992	16.7869
0.988	16.8646
0.984	16.8952
0.98	16.9974
0.976	16.9546
0.972	16.8182
0.968	16.7832
0.964	16.7438
0.96	16.8051
0.956	16.9331
0.952	16.9298
0.948	16.8733
0.944	16.8432
0.94	16.8366
0.936	16.8934
0.932	16.9135
0.928	16.9848
0.924	16.7617
0.92	16.7617
0.916	16.8517
0.912	16.9082
0.908	16.9
0.904	16.8584
0.9	16.9135
0.896	16.7818
0.892	16.8986
0.888	16.9337
0.884	16.8703
0.88	16.8353
0.876	16.8689
0.872	16.8405
0.868	16.8881
0.864	16.937
0.86	17.0351
0.856	17.0911
0.852	17.0689
0.848	17.1607
0.844	17.0123
0.84	17.1462
0.836	17.3596
0.832	17.3809
0.828	17.4094
0.824	17.4948
0.82	17.6947
0.816	17.6653
0.812	17.5299
0.808	17.6637
0.804	17.8134
0.8	17.7905
0.799	17.7905
0.798	17.7946
0.797	17.8905
0.796	17.7756
0.795	17.8554
0.794	17.8434
0.793	17.7446
0.792	17.7937
0.791	17.8297
0.79	17.8547
0.789	17.8436
0.788	17.7819
0.787	17.7828
0.786	17.7078
0.785	17.8239
0.784	17.8667
0.783	17.9538
0.782	17.8797
0.781	17.929
0.78	17.7879
0.779	17.9103
0.778	17.873
0.777	17.7997
0.776	17.8128
0.775	17.8188
0.774	17.757
0.773	17.8046
0.772	17.8859
0.771	17.9109
0.77	17.8921
0.769	17.8672
0.768	17.8362
0.767	17.8854
0.766	17.9103
0.765	17.886
0.764	17.855
0.763	17.917
0.762	17.88
0.761	17.8558
0.76	17.9225
0.759	17.9348
0.758	17.9348
0.757	17.9226
0.756	17.9847
0.755	17.966
0.754	17.9348
0.753	17.916
0.752	17.978
0.751	18.0279
0.75	17.8917
0.749	17.9039
0.748	17.8729
0.747	17.9411
0.746	17.984
0.745	18.0337
0.744	17.9344
0.743	17.8224
0.742	17.8721
0.741	17.9407
0.74	17.928
0.739	17.8968
0.738	17.9653
0.737	17.9219
0.736	17.8673
0.735	17.9407
0.734	17.9839
0.733	18.0027
0.732	18.1466
0.731	18.1091
0.73	18.128
0.729	18.0399
0.728	18.0341
0.727	18.0777
0.726	18.0465
0.725	18.0466
0.724	18.0404
0.723	17.9899
0.722	17.9524
0.721	17.9654
0.72	17.9716
0.719	17.9904
0.718	18.1349
0.717	18.0592
0.716	18.0906
0.715	18.078
0.714	18.2256
0.713	18.1859
0.712	18.2171
0.711	18.2171
0.71	18.1792
0.709	18.0026
0.708	18.1167
0.707	18.1603
0.706	18.2553
0.705	18.0916
0.704	18.0604
0.703	18.1234
0.702	18.0027
0.701	18.1107
0.7	18.2942
0.699	18.3529
0.698	18.1282
0.697	18.138
0.696	18.1436
0.695	18.1563
0.694	18.2988
0.693	18.2731
0.692	18.0945
0.691	18.2112
0.69	18.2304
0.689	18.1527
0.688	18.1654
0.687	18.298
0.686	18.3379
0.685	18.4026
0.684	18.4227
0.683	18.4172
0.682	18.4631
0.681	18.4631
0.68	18.3836
0.679	18.2922
0.678	18.2997
0.677	18.2872
0.676	18.3006
0.675	18.2481
0.674	18.328
0.673	18.3455
0.672	18.4322
0.671	18.4268
0.67	18.3527
0.669	18.4309
0.668	18.4052
0.667	18.3905
0.666	18.451
0.665	18.4646
0.664	18.5703
0.663	18.5296
0.662	18.5326
0.661	18.584
0.66	18.6509
0.659	18.6168
0.658	18.6578
0.657	18.5448
0.656	18.5788
0.655	18.4917
0.654	18.5852
0.653	18.4985
0.652	18.5173
0.651	18.5378
0.65	18.6177
0.649	18.5417
0.648	18.5485
0.647	18.5997
0.646	18.5872
0.645	18.5804
0.644	18.5349
0.643	18.6746
0.642	18.6608
0.641	18.652
0.64	18.706
0.639	18.6896
0.638	18.6917
0.637	18.8149
0.636	18.845
0.635	18.9065
0.634	18.8289
0.633	18.7742
0.632	18.6778
0.631	18.6627
0.63	18.7534
0.629	18.7001
0.628	18.714
0.627	18.8301
0.626	18.8415
0.625	18.7198
0.624	18.8556
0.623	18.8967
0.622	18.9223
0.621	18.866
0.62	18.9277
0.619	18.9136
0.618	18.7986
0.617	18.7837
0.616	18.8765
0.615	18.8138
0.614	18.8685
0.613	18.8673
0.612	18.8628
0.611	18.9294
0.61	18.9011
0.609	18.8335
0.608	18.8405
0.607	18.8068
0.606	18.9989
0.605	18.9479
0.604	18.9211
0.603	18.9095
0.602	18.989
0.601	19.1122
0.6	19.0143
0.599	19.0757
0.598	19.0666
0.597	19.0064
0.596	19.0089
0.595	19.0666
0.594	19.0956
0.593	19.082
0.592	19.015
0.591	19.0099
0.59	19.0358
0.589	19.1456
0.588	19.0742
0.587	19.1281
0.586	19.1267
0.585	19.2674
0.584	19.1581
0.583	19.0661
0.582	19.2842
0.581	19.0963
0.58	19.1952
0.579	19.122
0.578	19.217
0.577	19.3527
0.576	19.5177
0.575	19.486
0.574	19.4187
0.573	19.4473
0.572	19.4367
0.571	19.3459
0.57	19.2811
0.569	19.3283
0.568	19.3279
0.567	19.3431
0.566	19.3252
0.565	19.3577
0.564	19.3794
0.563	19.3537
0.562	19.3834
0.561	19.372
0.56	19.4092
0.559	19.3878
0.558	19.2161
0.557	19.3278
0.556	19.3027
0.555	19.2595
0.554	19.3849
0.553	19.3663
0.552	19.5464
0.551	19.5106
0.55	19.5434
0.549	19.4531
0.548	19.4314
0.547	19.4156
0.546	19.4531
0.545	19.5219
0.544	19.5992
0.543	19.5772
0.542	19.5039
0.541	19.5039
0.54	19.5365
0.539	19.5765
0.538	19.6205
0.537	19.5129
0.536	19.7082
0.535	19.5894
0.534	19.6902
0.533	19.6976
0.532	19.6368
0.531	19.553
0.53	19.6186
0.529	19.6076
0.528	19.6893
0.527	19.5222
0.526	19.5183
0.525	19.5583
0.524	19.6222
0.523	19.5945
0.522	19.7171
0.521	19.7689
0.52	19.6347
0.519	19.7224
0.518	19.7262
0.517	19.5967
0.516	19.6309
0.515	19.6493
0.514	19.5394
0.513	19.633
0.512	19.7079
0.511	19.7556
0.51	19.7064
0.509	19.8514
0.508	19.6748
0.507	19.5933
0.506	19.546
0.505	19.4546
0.504	19.4875
0.503	19.5292
0.502	19.4874
0.501	19.5798
0.5	19.6291
0.499	19.6567
0.498	19.6621
0.497	19.5708
0.496	19.5161
0.495	19.6421
0.494	19.5377
0.493	19.633
0.492	19.5906
0.491	19.6747
0.49	19.5626
0.489	19.6311
0.488	19.5027
0.487	19.4032
0.486	19.1107
0.485	19.3917
0.484	19.4889
0.483	19.4891
0.482	19.4486
0.481	19.3153
0.48	19.2125
0.479	19.4483
0.478	19.3979
0.477	19.3979
0.476	19.4192
0.475	19.3804
0.474	19.0836
0.473	19.0968
0.472	19.2171
0.471	19.2641
0.47	19.0229
0.469	19.0355
0.468	19.0428
0.467	18.855
0.466	19.0158
0.465	19.0794
0.464	18.9048
0.463	18.9279
0.462	18.9814
0.461	18.8405
0.46	18.8674
0.459	18.9349
0.458	18.8274
0.457	18.8531
0.456	18.8325
0.455	18.7078
0.454	18.695
0.453	18.647
0.452	18.6008
0.451	18.5168
0.45	18.5136
0.449	18.7141
0.448	18.526
0.447	18.502
0.446	18.3588
0.445	18.3609
0.444	18.3063
0.443	18.3129
0.442	18.4391
0.441	18.4055
0.44	18.3074
0.439	18.2315
0.438	18.1224
0.437	18.05
0.436	17.9354
0.435	17.8608
0.434	17.9517
0.433	17.979
0.432	17.8892
0.431	17.8129
0.43	17.7559
0.429	17.7551
0.428	17.7071
0.427	17.7524
0.426	17.5807
0.425	17.3914
0.424	17.2763
0.423	17.331
0.422	17.2506
0.421	17.297
0.42	17.2485
0.419	17.2727
0.418	17.2662
0.417	17.0813
0.416	17.2035
0.415	17.1992
0.414	17.0061
0.413	17.0013
0.412	16.9229
0.411	16.8849
0.41	16.8813
0.409	16.7901
0.408	16.7466
0.407	16.7011
0.406	16.561
0.405	16.5565
0.404	16.3909
0.403	16.4082
0.402	16.3395
0.401	16.2218
0.4	16.1007
