Name: Sandstone (Micaceous Red)
Type:  Rocks
Class:  Sedimentary
Subclass: Sandstone 
Particle Size:  500 - 1500 Micrometers
Sample No.:  sandstone.3
Owner:  JHU
Wavelength Range:  All
Origin:  Sample No. 363,  The Hunt and Salisbury Collection at the U.S. 
Geological Survey, Denver, Co.
Description: Sample consists of subangular to subrounded quartz 
grains, many (~50%) coated with ferruginous material with adhering, 
interstitial muscovite and green biotite mica. Interstitial carbonate, 
as well as larger carbonate crystals, scattered opaques and minor 
microcline, are present. Brown clay may be present in small amounts 
around the grains.
Measurement:  Directional (10 Degree) Hemispherical Reflectance
First Column:  X
Second Column:  Y  
X Units:  Wavelength (micrometers)
Y Units:  Reflectance (percent)
First X Value: 14.0112
Last X Value:  0.4
Number of X Values: 2844
Additional Information:  None

14.0112	2.0679
13.9734	2.0741
13.9359	2.0978
13.8985	2.1401
13.8614	2.1926
13.8244	2.2428
13.7876	2.2806
13.7511	2.3007
13.7147	2.3014
13.6785	2.2865
13.6425	2.266
13.6067	2.2507
13.5711	2.248
13.5356	2.2588
13.5004	2.2799
13.4653	2.3046
13.4304	2.326
13.3957	2.3428
13.3612	2.3574
13.3269	2.3768
13.2927	2.4074
13.2587	2.4517
13.2249	2.5063
13.1912	2.5646
13.1577	2.6198
13.1244	2.6701
13.0913	2.7172
13.0583	2.7689
13.0255	2.8381
12.9929	2.9352
12.9604	3.0635
12.9281	3.2154
12.8959	3.3716
12.8639	3.5032
12.8321	3.58
12.8004	3.5836
12.7688	3.5142
12.7375	3.3938
12.7063	3.2604
12.6752	3.1556
12.6443	3.1091
12.6135	3.1274
12.5829	3.1905
12.5524	3.2604
12.5221	3.2924
12.4919	3.2515
12.4619	3.1254
12.432	2.9271
12.4023	2.6885
12.3727	2.4515
12.3432	2.2526
12.3139	2.1136
12.2847	2.0387
12.2557	2.0176
12.2268	2.0327
12.198	2.0662
12.1694	2.1054
12.1409	2.1456
12.1125	2.1861
12.0843	2.2266
12.0562	2.2674
12.0282	2.3081
12.0003	2.3469
11.9726	2.3821
11.945	2.4138
11.9176	2.4435
11.8903	2.4729
11.8631	2.5036
11.836	2.5368
11.809	2.5742
11.7822	2.6168
11.7555	2.6658
11.7289	2.7201
11.7024	2.7763
11.676	2.8314
11.6498	2.8819
11.6237	2.9274
11.5977	2.9694
11.5718	3.0139
11.546	3.069
11.5203	3.1405
11.4948	3.2305
11.4694	3.3381
11.444	3.4602
11.4188	3.591
11.3937	3.7218
11.3688	3.8456
11.3439	3.9592
11.3191	4.0599
11.2944	4.1456
11.2699	4.214
11.2455	4.2628
11.2211	4.2865
11.1969	4.2777
11.1727	4.2319
11.1487	4.1537
11.1248	4.0543
11.101	3.9487
11.0773	3.8538
11.0536	3.7822
11.0301	3.7381
11.0067	3.7168
10.9834	3.708
10.9602	3.7022
10.937	3.6936
10.914	3.68
10.8911	3.663
10.8682	3.647
10.8455	3.6358
10.8229	3.6317
10.8003	3.6353
10.7779	3.6451
10.7555	3.6594
10.7332	3.6752
10.7111	3.6893
10.689	3.7013
10.667	3.7137
10.6451	3.7313
10.6233	3.758
10.6015	3.7977
10.5799	3.8518
10.5584	3.919
10.5369	3.9963
10.5155	4.0798
10.4942	4.166
10.473	4.2543
10.4519	4.3444
10.4309	4.4384
10.4099	4.5387
10.3891	4.6474
10.3683	4.7652
10.3476	4.8904
10.327	5.0197
10.3065	5.1503
10.286	5.2809
10.2656	5.4113
10.2454	5.5422
10.2251	5.6745
10.205	5.8078
10.185	5.9398
10.165	6.0678
10.1451	6.1891
10.1253	6.3039
10.1056	6.4125
10.0859	6.5176
10.0663	6.6212
10.0468	6.7277
10.0274	6.8399
10.008	6.9603
9.9887	7.0878
9.9695	7.2205
9.9504	7.3535
9.9313	7.483
9.9123	7.6063
9.8934	7.7251
9.8746	7.845
9.8558	7.9713
9.8371	8.1077
9.8185	8.2553
9.7999	8.4128
9.7814	8.5778
9.763	8.7496
9.7447	8.9284
9.7264	9.1165
9.7082	9.3148
9.69	9.5213
9.6719	9.7318
9.6539	9.9406
9.636	10.1421
9.6181	10.332
9.6003	10.5068
9.5825	10.663
9.5649	10.7974
9.5472	10.9068
9.5297	10.9883
9.5122	11.0443
9.4948	11.0819
9.4774	11.1145
9.4601	11.1613
9.4429	11.2423
9.4257	11.3746
9.4086	11.566
9.3916	11.8128
9.3746	12.098
9.3577	12.3959
9.3408	12.6787
9.324	12.9223
9.3073	13.1118
9.2906	13.2424
9.274	13.3187
9.2574	13.3508
9.2409	13.3499
9.2245	13.3281
9.2081	13.2958
9.1918	13.2589
9.1755	13.2206
9.1593	13.1831
9.1431	13.146
9.127	13.1077
9.111	13.0673
9.095	13.0249
9.0791	12.9799
9.0632	12.9294
9.0474	12.8715
9.0316	12.8081
9.0159	12.7419
9.0003	12.6773
8.9847	12.6189
8.9691	12.5706
8.9536	12.5316
8.9382	12.4988
8.9228	12.467
8.9075	12.4339
8.8922	12.3974
8.877	12.3562
8.8618	12.3096
8.8467	12.255
8.8316	12.1899
8.8166	12.1107
8.8016	12.015
8.7867	11.9038
8.7718	11.7811
8.757	11.6485
8.7422	11.4999
8.7275	11.3178
8.7129	11.079
8.6982	10.7644
8.6837	10.3763
8.6692	9.9526
8.6547	9.5636
8.6403	9.2929
8.6259	9.2043
8.6116	9.3143
8.5973	9.5864
8.583	9.9431
8.5688	10.2952
8.5547	10.5759
8.5406	10.7575
8.5266	10.8499
8.5126	10.8833
8.4986	10.8907
8.4847	10.8951
8.4708	10.9055
8.457	10.9238
8.4432	10.9482
8.4295	10.979
8.4158	11.0171
8.4022	11.0637
8.3886	11.1178
8.375	11.1762
8.3615	11.2343
8.3481	11.2891
8.3347	11.3389
8.3213	11.3831
8.3079	11.4241
8.2946	11.4633
8.2814	11.5011
8.2682	11.5351
8.255	11.5614
8.2419	11.5753
8.2288	11.569
8.2158	11.5339
8.2028	11.4586
8.1898	11.331
8.1769	11.1402
8.164	10.8809
8.1512	10.5556
8.1384	10.1747
8.1256	9.7555
8.1129	9.3176
8.1002	8.8788
8.0876	8.453
8.075	8.0483
8.0624	7.6689
8.0499	7.3148
8.0374	6.9842
8.025	6.6738
8.0126	6.3793
8.0002	6.096
7.9879	5.8199
7.9756	5.5491
7.9634	5.2833
7.9512	5.0249
7.939	4.7782
7.9268	4.5468
7.9147	4.3341
7.9027	4.1418
7.8906	3.969
7.8786	3.8145
7.8667	3.6762
7.8548	3.553
7.8429	3.4426
7.831	3.3441
7.8192	3.2567
7.8075	3.1792
7.7957	3.1103
7.784	3.0491
7.7723	2.9946
7.7607	2.945
7.7491	2.8986
7.7375	2.8539
7.726	2.8099
7.7145	2.7656
7.7031	2.7209
7.6916	2.6764
7.6802	2.6339
7.6689	2.5949
7.6575	2.5603
7.6462	2.5294
7.635	2.5016
7.6238	2.4759
7.6126	2.45
7.6014	2.4241
7.5903	2.3995
7.5792	2.377
7.5681	2.3574
7.5571	2.3399
7.5461	2.3239
7.5351	2.3079
7.5242	2.2913
7.5133	2.2739
7.5024	2.2566
7.4916	2.2402
7.4807	2.2258
7.47	2.2136
7.4592	2.2045
7.4485	2.1983
7.4378	2.1942
7.4272	2.1914
7.4165	2.1878
7.4059	2.1818
7.3954	2.1727
7.3848	2.1612
7.3743	2.1486
7.3639	2.1378
7.3534	2.1318
7.343	2.1325
7.3326	2.1404
7.3223	2.1542
7.3119	2.172
7.3016	2.1906
7.2914	2.2078
7.2811	2.2222
7.2709	2.2347
7.2607	2.2457
7.2506	2.2569
7.2404	2.2691
7.2303	2.2832
7.2203	2.2995
7.2102	2.3179
7.2002	2.3388
7.1902	2.3634
7.1803	2.3926
7.1703	2.4278
7.1604	2.4679
7.1506	2.5124
7.1407	2.5599
7.1309	2.6089
7.1211	2.6596
7.1113	2.7144
7.1016	2.7773
7.0919	2.8517
7.0822	2.9385
7.0725	3.0369
7.0629	3.1427
7.0533	3.2499
7.0437	3.3515
7.0341	3.4413
7.0246	3.5133
7.0151	3.564
7.0056	3.593
6.9962	3.603
6.9867	3.6013
6.9773	3.5955
6.9679	3.5922
6.9586	3.5948
6.9493	3.6041
6.94	3.6186
6.9307	3.6343
6.9214	3.6481
6.9122	3.658
6.903	3.6626
6.8938	3.6606
6.8847	3.6544
6.8755	3.6499
6.8664	3.6532
6.8573	3.6671
6.8483	3.6908
6.8393	3.721
6.8302	3.7499
6.8213	3.7688
6.8123	3.7764
6.8034	3.7769
6.7944	3.7771
6.7855	3.7824
6.7767	3.7958
6.7678	3.8166
6.759	3.84
6.7502	3.8592
6.7414	3.8717
6.7327	3.8793
6.7239	3.8868
6.7152	3.8996
6.7065	3.9217
6.6979	3.9542
6.6892	3.9934
6.6806	4.0332
6.672	4.0669
6.6634	4.0925
6.6549	4.1142
6.6464	4.1408
6.6378	4.1784
6.6294	4.2291
6.6209	4.288
6.6124	4.3451
6.604	4.3906
6.5956	4.4188
6.5872	4.4346
6.5789	4.4483
6.5705	4.4698
6.5622	4.5055
6.5539	4.5547
6.5456	4.6117
6.5374	4.6684
6.5292	4.7167
6.5209	4.7531
6.5128	4.7803
6.5046	4.8067
6.4964	4.8414
6.4883	4.8921
6.4802	4.9606
6.4721	5.039
6.464	5.1098
6.456	5.1533
6.448	5.1574
6.4399	5.1211
6.432	5.0574
6.424	4.9893
6.416	4.9366
6.4081	4.9074
6.4002	4.8924
6.3923	4.8715
6.3844	4.822
6.3766	4.7259
6.3687	4.5785
6.3609	4.3887
6.3531	4.1722
6.3454	3.9446
6.3376	3.718
6.3299	3.5009
6.3221	3.2979
6.3144	3.1115
6.3068	2.9424
6.2991	2.7919
6.2914	2.6598
6.2838	2.5443
6.2762	2.4424
6.2686	2.3517
6.2611	2.2706
6.2535	2.1987
6.246	2.1361
6.2385	2.0823
6.231	2.036
6.2235	1.9959
6.216	1.9593
6.2086	1.9238
6.2011	1.8894
6.1937	1.8571
6.1863	1.8294
6.179	1.8076
6.1716	1.792
6.1643	1.7815
6.157	1.7729
6.1496	1.7631
6.1424	1.7507
6.1351	1.7356
6.1278	1.7198
6.1206	1.7076
6.1134	1.7028
6.1062	1.7054
6.099	1.7128
6.0918	1.7205
6.0847	1.7233
6.0776	1.7176
6.0704	1.7024
6.0633	1.683
6.0563	1.6674
6.0492	1.6612
6.0421	1.6672
6.0351	1.6834
6.0281	1.7047
6.0211	1.7229
6.0141	1.7308
6.0071	1.7274
6.0002	1.7176
5.9932	1.7076
5.9863	1.7024
5.9794	1.7035
5.9725	1.7095
5.9657	1.7155
5.9588	1.7167
5.952	1.713
5.9451	1.7097
5.9383	1.7117
5.9315	1.721
5.9247	1.7358
5.918	1.7523
5.9112	1.7662
5.9045	1.7756
5.8978	1.782
5.8911	1.7925
5.8844	1.8116
5.8777	1.8403
5.8711	1.8753
5.8644	1.9112
5.8578	1.9437
5.8512	1.9691
5.8446	1.9868
5.838	2
5.8314	2.0133
5.8249	2.0304
5.8184	2.0523
5.8118	2.0787
5.8053	2.1059
5.7988	2.1291
5.7923	2.1437
5.7859	2.1478
5.7794	2.1449
5.773	2.1409
5.7666	2.1404
5.7602	2.1471
5.7538	2.1622
5.7474	2.1832
5.741	2.2052
5.7347	2.2239
5.7283	2.2377
5.722	2.2466
5.7157	2.25
5.7094	2.2483
5.7031	2.2428
5.6969	2.2337
5.6906	2.2203
5.6844	2.2026
5.6782	2.1811
5.6719	2.1564
5.6657	2.1296
5.6596	2.1021
5.6534	2.0767
5.6472	2.0553
5.6411	2.038
5.6349	2.0246
5.6288	2.0146
5.6227	2.0065
5.6166	1.999
5.6106	1.9906
5.6045	1.9803
5.5984	1.9679
5.5924	1.9537
5.5864	1.9396
5.5804	1.9293
5.5744	1.9251
5.5684	1.9275
5.5624	1.9344
5.5564	1.9428
5.5505	1.9499
5.5445	1.9545
5.5386	1.9569
5.5327	1.9593
5.5268	1.964
5.5209	1.9722
5.5151	1.9827
5.5092	1.9947
5.5033	2.0071
5.4975	2.0191
5.4917	2.0301
5.4859	2.042
5.4801	2.0576
5.4743	2.0789
5.4685	2.1069
5.4628	2.1414
5.457	2.1789
5.4513	2.215
5.4455	2.244
5.4398	2.2617
5.4341	2.2672
5.4284	2.2631
5.4228	2.2528
5.4171	2.2407
5.4114	2.2301
5.4058	2.2215
5.4002	2.2133
5.3945	2.2033
5.3889	2.1902
5.3833	2.1746
5.3778	2.1581
5.3722	2.1431
5.3666	2.1315
5.3611	2.1248
5.3555	2.1232
5.35	2.1258
5.3445	2.1328
5.339	2.1439
5.3335	2.1585
5.328	2.1748
5.3225	2.1916
5.3171	2.2065
5.3116	2.2181
5.3062	2.2266
5.3008	2.2342
5.2954	2.244
5.29	2.2583
5.2846	2.2787
5.2792	2.305
5.2738	2.3351
5.2684	2.367
5.2631	2.4
5.2578	2.4347
5.2524	2.4729
5.2471	2.5167
5.2418	2.566
5.2365	2.6198
5.2312	2.6746
5.226	2.7277
5.2207	2.778
5.2154	2.8245
5.2102	2.868
5.205	2.9084
5.1998	2.945
5.1945	2.9764
5.1893	3.0006
5.1842	3.0175
5.179	3.029
5.1738	3.0371
5.1686	3.0443
5.1635	3.0519
5.1584	3.0597
5.1532	3.0661
5.1481	3.0716
5.143	3.0766
5.1379	3.0836
5.1328	3.0944
5.1277	3.1098
5.1227	3.1287
5.1176	3.1477
5.1126	3.1628
5.1075	3.1704
5.1025	3.1687
5.0975	3.1581
5.0925	3.1407
5.0875	3.1189
5.0825	3.0952
5.0775	3.073
5.0726	3.0546
5.0676	3.0424
5.0627	3.0374
5.0577	3.0391
5.0528	3.0459
5.0479	3.056
5.043	3.0668
5.038	3.0781
5.0332	3.0895
5.0283	3.102
5.0234	3.1158
5.0185	3.1307
5.0137	3.146
5.0088	3.1613
5.004	3.1769
4.9992	3.1931
4.9944	3.213
4.9896	3.2388
4.9848	3.2723
4.98	3.3142
4.9752	3.3642
4.9704	3.4212
4.9657	3.4828
4.9609	3.5462
4.9562	3.6088
4.9514	3.6674
4.9467	3.72
4.942	3.7664
4.9373	3.8085
4.9326	3.8521
4.9279	3.9049
4.9232	3.9763
4.9186	4.0724
4.9139	4.1977
4.9092	4.3524
4.9046	4.5318
4.9	4.7304
4.8953	4.943
4.8907	5.1644
4.8861	5.3895
4.8815	5.6132
4.8769	5.8319
4.8723	6.0407
4.8678	6.2362
4.8632	6.4164
4.8586	6.5822
4.8541	6.7355
4.8495	6.8774
4.845	7.0091
4.8405	7.1318
4.836	7.2464
4.8315	7.3538
4.827	7.4557
4.8225	7.554
4.818	7.6498
4.8135	7.7429
4.809	7.8332
4.8046	7.9213
4.8001	8.0067
4.7957	8.0907
4.7913	8.1738
4.7868	8.2553
4.7824	8.3348
4.778	8.4104
4.7736	8.4817
4.7692	8.5484
4.7648	8.6123
4.7605	8.6745
4.7561	8.736
4.7517	8.7958
4.7474	8.852
4.7431	8.9023
4.7387	8.9439
4.7344	8.975
4.7301	8.9939
4.7258	8.998
4.7215	8.9843
4.7172	8.9495
4.7129	8.8891
4.7086	8.8018
4.7043	8.6889
4.7	8.5561
4.6958	8.4147
4.6915	8.279
4.6873	8.1647
4.6831	8.084
4.6788	8.044
4.6746	8.0445
4.6704	8.0797
4.6662	8.1395
4.662	8.2137
4.6578	8.296
4.6536	8.3819
4.6495	8.4701
4.6453	8.5614
4.6411	8.656
4.637	8.7538
4.6328	8.8518
4.6287	8.9482
4.6246	9.0423
4.6205	9.1334
4.6163	9.2224
4.6122	9.3122
4.6081	9.405
4.604	9.5019
4.6	9.6023
4.5959	9.7054
4.5918	9.8093
4.5877	9.9112
4.5837	10.0093
4.5796	10.1016
4.5756	10.1866
4.5716	10.261
4.5675	10.322
4.5635	10.3675
4.5595	10.3953
4.5555	10.4036
4.5515	10.3924
4.5475	10.3624
4.5435	10.3154
4.5395	10.2512
4.5356	10.1708
4.5316	10.0751
4.5276	9.9639
4.5237	9.8375
4.5197	9.6986
4.5158	9.5504
4.5119	9.399
4.508	9.2516
4.504	9.1166
4.5001	9.0013
4.4962	8.9085
4.4923	8.8365
4.4884	8.7802
4.4846	8.7332
4.4807	8.691
4.4768	8.6537
4.473	8.6257
4.4691	8.6142
4.4652	8.6255
4.4614	8.6613
4.4576	8.7188
4.4537	8.7913
4.4499	8.8712
4.4461	8.9525
4.4423	9.0325
4.4385	9.1126
4.4347	9.1966
4.4309	9.2882
4.4271	9.3908
4.4233	9.5054
4.4196	9.6309
4.4158	9.7645
4.412	9.9046
4.4083	10.0483
4.4045	10.1957
4.4008	10.3474
4.3971	10.5038
4.3934	10.6658
4.3896	10.8326
4.3859	11.0028
4.3822	11.1741
4.3785	11.3451
4.3748	11.5147
4.3711	11.6808
4.3674	11.8404
4.3638	11.9896
4.3601	12.1229
4.3564	12.2344
4.3528	12.3212
4.3491	12.3825
4.3455	12.421
4.3418	12.4402
4.3382	12.4457
4.3346	12.4419
4.331	12.4308
4.3273	12.4129
4.3237	12.3878
4.3201	12.3553
4.3165	12.3153
4.3129	12.2689
4.3094	12.2188
4.3058	12.1682
4.3022	12.1199
4.2986	12.0756
4.2951	12.0364
4.2915	12.0004
4.288	11.9635
4.2844	11.9215
4.2809	11.8751
4.2774	11.832
4.2738	11.8066
4.2703	11.8155
4.2668	11.8712
4.2633	11.9751
4.2598	12.1146
4.2563	12.2684
4.2528	12.4134
4.2493	12.5332
4.2458	12.6218
4.2424	12.6831
4.2389	12.7271
4.2354	12.7656
4.232	12.806
4.2285	12.8524
4.2251	12.9053
4.2216	12.963
4.2182	13.0216
4.2148	13.0773
4.2113	13.1276
4.2079	13.1711
4.2045	13.2078
4.2011	13.2393
4.1977	13.2687
4.1943	13.2994
4.1909	13.3331
4.1875	13.3701
4.1841	13.4113
4.1808	13.4549
4.1774	13.4974
4.174	13.536
4.1707	13.5678
4.1673	13.5919
4.164	13.6083
4.1606	13.6185
4.1573	13.6271
4.154	13.6377
4.1506	13.6532
4.1473	13.6759
4.144	13.7076
4.1407	13.7474
4.1374	13.7939
4.1341	13.8437
4.1308	13.8937
4.1275	13.9406
4.1242	13.982
4.1209	14.0162
4.1177	14.0439
4.1144	14.0664
4.1111	14.0846
4.1079	14.0997
4.1046	14.1131
4.1014	14.1247
4.0981	14.1332
4.0949	14.137
4.0917	14.1339
4.0884	14.1229
4.0852	14.1018
4.082	14.07
4.0788	14.0264
4.0756	13.9695
4.0724	13.8994
4.0692	13.8171
4.066	13.7243
4.0628	13.6231
4.0596	13.5162
4.0565	13.404
4.0533	13.2848
4.0501	13.1568
4.047	13.018
4.0438	12.8675
4.0406	12.7045
4.0375	12.5289
4.0344	12.3416
4.0312	12.1428
4.0281	11.9305
4.025	11.7044
4.0218	11.4647
4.0187	11.2118
4.0156	10.947
4.0125	10.6738
4.0094	10.3971
4.0063	10.1222
4.0032	9.8538
4.0001	9.5947
3.997	9.3468
3.994	9.1085
3.9909	8.8769
3.9878	8.6509
3.9847	8.4314
3.9817	8.2238
3.9786	8.0354
3.9756	7.8749
3.9725	7.7495
3.9695	7.6624
3.9665	7.6118
3.9634	7.5914
3.9604	7.594
3.9574	7.612
3.9544	7.6385
3.9513	7.6692
3.9483	7.7007
3.9453	7.7318
3.9423	7.762
3.9393	7.7912
3.9363	7.8199
3.9333	7.8498
3.9304	7.882
3.9274	7.917
3.9244	7.9546
3.9214	7.9967
3.9185	8.0467
3.9155	8.1084
3.9126	8.185
3.9096	8.2783
3.9067	8.3855
3.9037	8.4985
3.9008	8.6059
3.8979	8.6967
3.8949	8.7647
3.892	8.8085
3.8891	8.8333
3.8862	8.8484
3.8833	8.863
3.8804	8.8834
3.8775	8.9113
3.8746	8.946
3.8717	8.9896
3.8688	9.0461
3.8659	9.1246
3.863	9.2358
3.8601	9.3889
3.8573	9.5854
3.8544	9.8141
3.8515	10.0543
3.8487	10.2799
3.8458	10.4644
3.843	10.5878
3.8401	10.6414
3.8373	10.6273
3.8344	10.5563
3.8316	10.4424
3.8288	10.2993
3.8259	10.1383
3.8231	9.9675
3.8203	9.7937
3.8175	9.6241
3.8147	9.4677
3.8119	9.3354
3.8091	9.239
3.8063	9.188
3.8035	9.1882
3.8007	9.2387
3.7979	9.3332
3.7951	9.4619
3.7924	9.6131
3.7896	9.7778
3.7868	9.9502
3.7841	10.129
3.7813	10.3124
3.7785	10.5005
3.7758	10.6927
3.773	10.8876
3.7703	11.0846
3.7676	11.2836
3.7648	11.488
3.7621	11.7009
3.7594	11.925
3.7566	12.1629
3.7539	12.4117
3.7512	12.6665
3.7485	12.9187
3.7458	13.1585
3.7431	13.3764
3.7404	13.5657
3.7377	13.7238
3.735	13.8525
3.7323	13.9561
3.7296	14.0406
3.7269	14.1116
3.7242	14.1738
3.7216	14.2296
3.7189	14.2808
3.7162	14.3282
3.7136	14.3737
3.7109	14.419
3.7083	14.4665
3.7056	14.516
3.703	14.5677
3.7003	14.6195
3.6977	14.6693
3.695	14.7146
3.6924	14.755
3.6898	14.7923
3.6872	14.827
3.6845	14.8595
3.6819	14.8885
3.6793	14.912
3.6767	14.9275
3.6741	14.9347
3.6715	14.9347
3.6689	14.9309
3.6663	14.9258
3.6637	14.9213
3.6611	14.9168
3.6585	14.9105
3.656	14.9
3.6534	14.8841
3.6508	14.8634
3.6482	14.839
3.6457	14.8129
3.6431	14.7863
3.6406	14.7596
3.638	14.7318
3.6355	14.7024
3.6329	14.6703
3.6304	14.6349
3.6278	14.5956
3.6253	14.5526
3.6227	14.5064
3.6202	14.4574
3.6177	14.4071
3.6152	14.3581
3.6127	14.3114
3.6101	14.2681
3.6076	14.227
3.6051	14.1865
3.6026	14.1453
3.6001	14.1028
3.5976	14.0588
3.5951	14.0143
3.5926	13.9695
3.5901	13.9235
3.5876	13.8755
3.5852	13.825
3.5827	13.7716
3.5802	13.7157
3.5777	13.658
3.5753	13.5987
3.5728	13.5358
3.5704	13.4666
3.5679	13.3881
3.5654	13.2974
3.563	13.1929
3.5605	13.0745
3.5581	12.946
3.5557	12.8144
3.5532	12.6885
3.5508	12.5775
3.5484	12.4866
3.5459	12.416
3.5435	12.3601
3.5411	12.3078
3.5387	12.2483
3.5363	12.172
3.5338	12.0753
3.5314	11.9564
3.529	11.8162
3.5266	11.6578
3.5242	11.483
3.5218	11.2927
3.5195	11.0881
3.5171	10.8721
3.5147	10.6486
3.5123	10.4213
3.5099	10.1938
3.5075	9.9672
3.5052	9.7423
3.5028	9.5191
3.5004	9.2982
3.4981	9.0841
3.4957	8.8824
3.4934	8.6997
3.491	8.5413
3.4887	8.4072
3.4863	8.295
3.484	8.1999
3.4816	8.1154
3.4793	8.0374
3.477	7.9637
3.4746	7.8953
3.4723	7.8324
3.47	7.7746
3.4677	7.7208
3.4653	7.6689
3.463	7.6163
3.4607	7.5622
3.4584	7.5082
3.4561	7.4584
3.4538	7.4184
3.4515	7.3925
3.4492	7.3832
3.4469	7.3912
3.4446	7.4146
3.4423	7.4512
3.44	7.4986
3.4378	7.5548
3.4355	7.6179
3.4332	7.6833
3.4309	7.7462
3.4287	7.801
3.4264	7.844
3.4241	7.8742
3.4219	7.8907
3.4196	7.8966
3.4174	7.8955
3.4151	7.8902
3.4129	7.8845
3.4106	7.8795
3.4084	7.8764
3.4061	7.8744
3.4039	7.8722
3.4017	7.8687
3.3994	7.8629
3.3972	7.856
3.395	7.8493
3.3928	7.8443
3.3906	7.8426
3.3883	7.8457
3.3861	7.8541
3.3839	7.8649
3.3817	7.8747
3.3795	7.8785
3.3773	7.8711
3.3751	7.8474
3.3729	7.807
3.3707	7.7541
3.3685	7.6941
3.3663	7.6314
3.3641	7.5701
3.362	7.5129
3.3598	7.4596
3.3576	7.4079
3.3554	7.3576
3.3533	7.3088
3.3511	7.2624
3.3489	7.2186
3.3468	7.1792
3.3446	7.1459
3.3425	7.1201
3.3403	7.1004
3.3382	7.0841
3.336	7.0679
3.3339	7.0487
3.3317	7.0243
3.3296	6.9951
3.3274	6.9629
3.3253	6.9301
3.3232	6.8973
3.321	6.8626
3.3189	6.8233
3.3168	6.7777
3.3147	6.7274
3.3126	6.6767
3.3104	6.6339
3.3083	6.6102
3.3062	6.6167
3.3041	6.659
3.302	6.7375
3.2999	6.8477
3.2978	6.9808
3.2957	7.1226
3.2936	7.2591
3.2915	7.3806
3.2894	7.4806
3.2874	7.556
3.2853	7.6074
3.2832	7.6388
3.2811	7.656
3.279	7.6634
3.277	7.6639
3.2749	7.6594
3.2728	7.65
3.2708	7.6357
3.2687	7.6163
3.2666	7.5938
3.2646	7.5711
3.2625	7.5502
3.2605	7.5326
3.2584	7.5158
3.2564	7.4974
3.2543	7.4756
3.2523	7.4503
3.2503	7.4222
3.2482	7.393
3.2462	7.3646
3.2442	7.3371
3.2421	7.3088
3.2401	7.2787
3.2381	7.2481
3.2361	7.2184
3.234	7.1908
3.232	7.1662
3.23	7.1442
3.228	7.1222
3.226	7.0969
3.224	7.0657
3.222	7.0287
3.22	6.9875
3.218	6.9452
3.216	6.9047
3.214	6.8683
3.212	6.8353
3.21	6.8031
3.208	6.7676
3.206	6.7279
3.204	6.6837
3.2021	6.6368
3.2001	6.5906
3.1981	6.548
3.1961	6.5101
3.1942	6.4754
3.1922	6.441
3.1902	6.4044
3.1883	6.3647
3.1863	6.3234
3.1844	6.2829
3.1824	6.2453
3.1805	6.2123
3.1785	6.1824
3.1766	6.1532
3.1746	6.1225
3.1727	6.0898
3.1707	6.0551
3.1688	6.0202
3.1669	5.9855
3.1649	5.9515
3.163	5.918
3.1611	5.8845
3.1591	5.852
3.1572	5.8201
3.1553	5.7902
3.1534	5.762
3.1515	5.7338
3.1495	5.7044
3.1476	5.6725
3.1457	5.6398
3.1438	5.6073
3.1419	5.5764
3.14	5.5491
3.1381	5.5261
3.1362	5.5057
3.1343	5.4845
3.1324	5.4604
3.1305	5.433
3.1286	5.4029
3.1268	5.3713
3.1249	5.3397
3.123	5.3108
3.1211	5.2856
3.1192	5.2644
3.1174	5.2469
3.1155	5.2323
3.1136	5.2197
3.1117	5.2058
3.1099	5.1873
3.108	5.1634
3.1061	5.1354
3.1043	5.106
3.1024	5.0789
3.1006	5.0577
3.0987	5.0431
3.0969	5.0321
3.095	5.0197
3.0932	5.0029
3.0913	4.9802
3.0895	4.9533
3.0876	4.928
3.0858	4.9096
3.084	4.901
3.0821	4.8997
3.0803	4.9017
3.0785	4.9019
3.0766	4.8954
3.0748	4.8821
3.073	4.8653
3.0712	4.8492
3.0694	4.8359
3.0675	4.8248
3.0657	4.8148
3.0639	4.8031
3.0621	4.7897
3.0603	4.776
3.0585	4.7655
3.0567	4.7593
3.0549	4.7571
3.0531	4.7557
3.0513	4.7503
3.0495	4.7385
3.0477	4.7217
3.0459	4.7016
3.0441	4.6816
3.0423	4.6641
3.0406	4.6507
3.0388	4.6402
3.037	4.6308
3.0352	4.623
3.0334	4.616
3.0317	4.6102
3.0299	4.6069
3.0281	4.6055
3.0264	4.6035
3.0246	4.5994
3.0228	4.5923
3.0211	4.5813
3.0193	4.5672
3.0176	4.5533
3.0158	4.5438
3.014	4.5392
3.0123	4.5373
3.0105	4.5347
3.0088	4.5277
3.007	4.5138
3.0053	4.4937
3.0036	4.4708
3.0018	4.4495
3.0001	4.4332
2.9984	4.4215
2.9966	4.4122
2.9949	4.4037
2.9932	4.3969
2.9914	4.3911
2.9897	4.3851
2.988	4.3798
2.9863	4.375
2.9845	4.3683
2.9828	4.3585
2.9811	4.3451
2.9794	4.3296
2.9777	4.3124
2.976	4.2937
2.9743	4.2767
2.9726	4.2638
2.9709	4.2555
2.9692	4.2507
2.9675	4.2475
2.9658	4.2427
2.9641	4.2337
2.9624	4.2214
2.9607	4.2093
2.959	4.2012
2.9573	4.1997
2.9556	4.2047
2.9539	4.2123
2.9523	4.2162
2.9506	4.2121
2.9489	4.2012
2.9472	4.1872
2.9455	4.1741
2.9439	4.1655
2.9422	4.1624
2.9405	4.1633
2.9389	4.164
2.9372	4.1625
2.9355	4.1612
2.9339	4.1609
2.9322	4.1625
2.9306	4.166
2.9289	4.1698
2.9272	4.1717
2.9256	4.17
2.9239	4.1647
2.9223	4.1587
2.9207	4.1542
2.919	4.1528
2.9174	4.1557
2.9157	4.1622
2.9141	4.1712
2.9124	4.1818
2.9108	4.1932
2.9092	4.2068
2.9075	4.2229
2.9059	4.2399
2.9043	4.2561
2.9027	4.2705
2.901	4.2822
2.8994	4.2932
2.8978	4.3069
2.8962	4.3265
2.8946	4.3506
2.8929	4.376
2.8913	4.3966
2.8897	4.4069
2.8881	4.4047
2.8865	4.3928
2.8849	4.3765
2.8833	4.3612
2.8817	4.3514
2.8801	4.3506
2.8785	4.3597
2.8769	4.378
2.8753	4.405
2.8737	4.4382
2.8721	4.4741
2.8705	4.5076
2.8689	4.5353
2.8673	4.5562
2.8658	4.5695
2.8642	4.5775
2.8626	4.5813
2.861	4.5815
2.8594	4.5785
2.8579	4.5725
2.8563	4.565
2.8547	4.5597
2.8531	4.5612
2.8516	4.5715
2.85	4.5894
2.8484	4.611
2.8469	4.6316
2.8453	4.6459
2.8437	4.6492
2.8422	4.6427
2.8406	4.6303
2.8391	4.6153
2.8375	4.5997
2.836	4.5856
2.8344	4.5739
2.8329	4.5629
2.8313	4.5516
2.8298	4.5403
2.8282	4.5303
2.8267	4.5201
2.8252	4.5071
2.8236	4.4904
2.8221	4.4701
2.8205	4.4464
2.819	4.4208
2.8175	4.3942
2.8159	4.3679
2.8144	4.3396
2.8129	4.3059
2.8114	4.265
2.8098	4.2169
2.8083	4.1647
2.8068	4.1099
2.8053	4.0568
2.8038	4.0088
2.8022	3.9666
2.8007	3.9267
2.7992	3.8868
2.7977	3.8425
2.7962	3.7908
2.7947	3.7288
2.7932	3.6587
2.7917	3.5852
2.7902	3.5125
2.7887	3.4441
2.7872	3.3829
2.7857	3.3271
2.7842	3.2738
2.7827	3.2197
2.7812	3.1651
2.7797	3.1115
2.7782	3.0622
2.7767	3.0194
2.7752	2.9828
2.7738	2.9486
2.7723	2.9128
2.7708	2.8725
2.7693	2.8288
2.7678	2.784
2.7664	2.7433
2.7649	2.7086
2.7634	2.6799
2.7619	2.6545
2.7605	2.6309
2.759	2.6103
2.7575	2.5969
2.7561	2.5962
2.7546	2.6132
2.7531	2.6488
2.7517	2.6983
2.7502	2.7524
2.7488	2.8003
2.7473	2.8354
2.7458	2.8565
2.7444	2.867
2.7429	2.8776
2.7415	2.9005
2.74	2.9431
2.7386	3.0077
2.7371	3.0914
2.7357	3.189
2.7343	3.2939
2.7328	3.4011
2.7314	3.5113
2.7299	3.6272
2.7285	3.7504
2.7271	3.8863
2.7256	4.0427
2.7242	4.2286
2.7228	4.4525
2.7213	4.7211
2.7199	5.033
2.7185	5.3785
2.7171	5.7422
2.7156	6.1116
2.7142	6.4802
2.7128	6.8507
2.7114	7.231
2.71	7.6285
2.7085	8.0432
2.7071	8.4693
2.7057	8.897
2.7043	9.317
2.7029	9.7234
2.7015	10.1151
2.7001	10.4933
2.6987	10.8589
2.6973	11.2149
2.6959	11.566
2.6945	11.9139
2.6931	12.2581
2.6917	12.5957
2.6903	12.9225
2.6889	13.2326
2.6875	13.5183
2.6861	13.771
2.6847	13.9868
2.6833	14.1624
2.6819	14.299
2.6805	14.4026
2.6791	14.4894
2.6778	14.5755
2.6764	14.6643
2.675	14.744
2.6736	14.8059
2.6722	14.8469
2.6709	14.8687
2.6695	14.8859
2.6681	14.9296
2.6667	15.0265
2.6654	15.1787
2.664	15.3663
2.6626	15.5648
2.6613	15.7477
2.6599	15.8869
2.6585	15.9738
2.6572	16.0205
2.6558	16.0487
2.6545	16.0752
2.6531	16.1104
2.6517	16.1568
2.6504	16.2097
2.649	16.2575
2.6477	16.2963
2.6463	16.3279
2.645	16.3568
2.6436	16.3898
2.6423	16.4293
2.6409	16.47
2.6396	16.5042
2.6382	16.5216
2.6369	16.5154
2.6356	16.4806
2.6342	16.4197
2.6329	16.3523
2.6315	16.2977
2.6302	16.2706
2.6289	16.2805
2.6275	16.3224
2.6262	16.3765
2.6249	16.4114
2.6236	16.4077
2.6222	16.3709
2.6209	16.3131
2.6196	16.257
2.6183	16.2329
2.6169	16.2565
2.6156	16.3219
2.6143	16.403
2.613	16.4733
2.6117	16.5131
2.6103	16.5047
2.609	16.453
2.6077	16.3881
2.6064	16.3465
2.6051	16.3503
2.6038	16.3996
2.6025	16.4748
2.6012	16.5384
2.5999	16.5495
2.5986	16.4906
2.5973	16.3906
2.596	16.3003
2.5947	16.2635
2.5934	16.3003
2.5921	16.3999
2.5908	16.5252
2.5895	16.6286
2.5882	16.6784
2.5869	16.6806
2.5856	16.6645
2.5843	16.6564
2.583	16.6722
2.5817	16.7126
2.5805	16.7643
2.5792	16.8076
2.5779	16.8245
2.5766	16.8159
2.5753	16.7953
2.5741	16.7752
2.5728	16.7671
2.5715	16.7755
2.5702	16.7958
2.569	16.8167
2.5677	16.8222
2.5664	16.8083
2.5651	16.7827
2.5639	16.7585
2.5626	16.7518
2.5613	16.7729
2.5601	16.8181
2.5588	16.8736
2.5575	16.9191
2.5563	16.9409
2.555	16.9368
2.5538	16.9145
2.5525	16.887
2.5513	16.864
2.55	16.8485
2.5487	16.8378
2.5475	16.8248
2.5462	16.8045
2.545	16.7782
2.5437	16.7497
2.5425	16.7213
2.5413	16.6939
2.54	16.6664
2.5388	16.6373
2.5375	16.6035
2.5363	16.5643
2.535	16.5216
2.5338	16.4771
2.5326	16.4317
2.5313	16.388
2.5301	16.348
2.5289	16.3121
2.5276	16.2805
2.5264	16.2532
2.5252	16.2286
2.5239	16.2047
2.5227	16.1812
2.5215	16.1601
2.5202	16.1425
2.519	16.1259
2.5178	16.1096
2.5166	16.0925
2.5154	16.0738
2.5141	16.0544
2.5129	16.0367
2.5117	16.025
2.5105	16.019
2.5093	16.0163
2.5081	16.0147
2.5068	16.0137
2.5056	16.0142
2.5044	16.0163
2.5032	16.0216
2.502	16.0309
2.5008	16.0424
2.4996	16.0535
2.4984	16.0642
2.4972	16.0754
2.496	16.0874
2.4948	16.0991
2.4936	16.1096
2.4924	16.1178
2.4912	16.1216
2.49	16.1229
2.4888	16.1252
2.4876	16.131
2.4864	16.1415
2.4852	16.1578
2.484	16.1795
2.4828	16.2034
2.4816	16.2255
2.4805	16.2422
2.4793	16.251
2.4781	16.2492
2.4769	16.2379
2.4757	16.2214
2.4745	16.2049
2.4734	16.1913
2.4722	16.1824
2.471	16.1778
2.4698	16.174
2.4686	16.1678
2.4675	16.1573
2.4663	16.143
2.4651	16.1272
2.464	16.1131
2.4628	16.1035
2.4616	16.1006
2.4604	16.1032
2.4593	16.1089
2.4581	16.1151
2.4569	16.1207
2.4558	16.1252
2.4546	16.1295
2.4535	16.1338
2.4523	16.1379
2.4511	16.1391
2.45	16.1353
2.4488	16.1267
2.4477	16.1178
2.4465	16.1156
2.4454	16.1245
2.4442	16.1453
2.4431	16.1755
2.4419	16.2075
2.4408	16.2341
2.4396	16.252
2.4385	16.2633
2.4373	16.2714
2.4362	16.2796
2.435	16.2899
2.4339	16.3037
2.4327	16.3207
2.4316	16.34
2.4305	16.3644
2.4293	16.3944
2.4282	16.4276
2.427	16.4595
2.4259	16.4858
2.4248	16.5063
2.4236	16.5221
2.4225	16.5382
2.4214	16.5593
2.4202	16.5863
2.4191	16.6167
2.418	16.6466
2.4169	16.6731
2.4157	16.6961
2.4146	16.7178
2.4135	16.7413
2.4124	16.7684
2.4112	16.7958
2.4101	16.8197
2.409	16.838
2.4079	16.8489
2.4068	16.8516
2.4056	16.8489
2.4045	16.8451
2.4034	16.8416
2.4023	16.8382
2.4012	16.8373
2.4001	16.8411
2.399	16.8499
2.3979	16.8622
2.3967	16.8767
2.3956	16.8909
2.3945	16.8999
2.3934	16.9014
2.3923	16.8956
2.3912	16.8846
2.3901	16.87
2.389	16.8547
2.3879	16.8425
2.3868	16.8358
2.3857	16.836
2.3846	16.8449
2.3835	16.8614
2.3824	16.8806
2.3813	16.8971
2.3802	16.9074
2.3791	16.9095
2.3781	16.9035
2.377	16.8926
2.3759	16.8813
2.3748	16.8705
2.3737	16.8609
2.3726	16.8528
2.3715	16.8487
2.3704	16.8485
2.3694	16.8514
2.3683	16.859
2.3672	16.8703
2.3661	16.8823
2.365	16.8923
2.364	16.8982
2.3629	16.9004
2.3618	16.8956
2.3607	16.8829
2.3597	16.8631
2.3586	16.8373
2.3575	16.8088
2.3564	16.78
2.3554	16.7535
2.3543	16.7315
2.3532	16.714
2.3522	16.6999
2.3511	16.6879
2.35	16.6765
2.349	16.6669
2.3479	16.6587
2.3468	16.6516
2.3458	16.6449
2.3447	16.6389
2.3436	16.6338
2.3426	16.6283
2.3415	16.6243
2.3405	16.6253
2.3394	16.6327
2.3384	16.6454
2.3373	16.6607
2.3363	16.6767
2.3352	16.6904
2.3342	16.7004
2.3331	16.7092
2.3321	16.721
2.331	16.7375
2.33	16.7588
2.3289	16.7844
2.3279	16.8134
2.3268	16.8435
2.3258	16.8733
2.3247	16.9032
2.3237	16.9318
2.3226	16.9573
2.3216	16.9789
2.3206	16.9966
2.3195	17.0107
2.3185	17.0227
2.3175	17.0358
2.3164	17.0541
2.3154	17.0791
2.3144	17.1112
2.3133	17.1474
2.3123	17.1822
2.3113	17.2093
2.3102	17.2254
2.3092	17.2315
2.3082	17.2327
2.3071	17.2339
2.3061	17.2397
2.3051	17.2498
2.3041	17.2607
2.303	17.2689
2.302	17.2722
2.301	17.2722
2.3	17.2732
2.299	17.2801
2.2979	17.2966
2.2969	17.3208
2.2959	17.3479
2.2949	17.371
2.2939	17.3861
2.2929	17.3928
2.2918	17.3942
2.2908	17.3967
2.2898	17.4065
2.2888	17.4258
2.2878	17.4505
2.2868	17.4732
2.2858	17.4885
2.2848	17.4933
2.2838	17.4888
2.2828	17.4799
2.2818	17.4751
2.2808	17.4787
2.2798	17.4883
2.2787	17.4983
2.2777	17.5029
2.2767	17.4986
2.2757	17.4845
2.2747	17.4658
2.2738	17.4498
2.2728	17.4421
2.2718	17.444
2.2708	17.4536
2.2698	17.4672
2.2688	17.4794
2.2678	17.4854
2.2668	17.482
2.2658	17.4694
2.2648	17.4485
2.2638	17.4232
2.2628	17.3992
2.2618	17.3809
2.2609	17.368
2.2599	17.3577
2.2589	17.3464
2.2579	17.3303
2.2569	17.3089
2.2559	17.2845
2.255	17.2636
2.254	17.2504
2.253	17.2455
2.252	17.2463
2.251	17.2473
2.2501	17.242
2.2491	17.2262
2.2481	17.1995
2.2471	17.165
2.2462	17.1279
2.2452	17.0939
2.2442	17.0674
2.2433	17.0519
2.2423	17.0468
2.2413	17.0495
2.2403	17.0559
2.2394	17.0614
2.2384	17.0612
2.2374	17.0506
2.2365	17.0284
2.2355	16.9966
2.2345	16.9588
2.2336	16.9203
2.2326	16.8863
2.2317	16.8602
2.2307	16.8413
2.2297	16.8253
2.2288	16.8071
2.2278	16.7839
2.2269	16.7556
2.2259	16.7243
2.225	16.6925
2.224	16.6624
2.2231	16.632
2.2221	16.598
2.2211	16.5581
2.2202	16.5131
2.2192	16.465
2.2183	16.418
2.2173	16.3774
2.2164	16.3463
2.2155	16.3234
2.2145	16.307
2.2136	16.296
2.2126	16.286
2.2117	16.2723
2.2107	16.2532
2.2098	16.2291
2.2088	16.2013
2.2079	16.1725
2.207	16.1478
2.206	16.1307
2.2051	16.1204
2.2041	16.1154
2.2032	16.1154
2.2023	16.1207
2.2013	16.1324
2.2004	16.1532
2.1995	16.1855
2.1985	16.2283
2.1976	16.2762
2.1967	16.3236
2.1957	16.3664
2.1948	16.4021
2.1939	16.4324
2.193	16.4614
2.192	16.4947
2.1911	16.5337
2.1902	16.5767
2.1893	16.6205
2.1883	16.6628
2.1874	16.7023
2.1865	16.7399
2.1856	16.7803
2.1846	16.827
2.1837	16.8793
2.1828	16.9318
2.1819	16.9777
2.181	17.0131
2.18	17.0365
2.1791	17.0526
2.1782	17.0689
2.1773	17.0916
2.1764	17.1238
2.1755	17.1624
2.1746	17.2028
2.1736	17.2423
2.1727	17.2806
2.1718	17.3198
2.1709	17.36
2.17	17.3988
2.1691	17.4339
2.1682	17.4608
2.1673	17.4775
2.1664	17.4868
2.1655	17.4943
2.1646	17.5019
2.1637	17.5079
2.1628	17.5107
2.1619	17.5117
2.161	17.5124
2.1601	17.5149
2.1592	17.5225
2.1583	17.5361
2.1574	17.5514
2.1565	17.561
2.1556	17.5634
2.1547	17.5632
2.1538	17.5641
2.1529	17.5667
2.152	17.5693
2.1511	17.5706
2.1502	17.5665
2.1493	17.5564
2.1484	17.5469
2.1475	17.5481
2.1466	17.5643
2.1458	17.5892
2.1449	17.6127
2.144	17.6282
2.1431	17.6323
2.1422	17.6258
2.1413	17.6168
2.1404	17.6141
2.1396	17.6186
2.1387	17.6228
2.1378	17.6177
2.1369	17.601
2.136	17.5751
2.1352	17.5459
2.1343	17.522
2.1334	17.5105
2.1325	17.5122
2.1316	17.5213
2.1308	17.5308
2.1299	17.5371
2.129	17.5385
2.1281	17.534
2.1273	17.5244
2.1264	17.5134
2.1255	17.5029
2.1247	17.4952
2.1238	17.4928
2.1229	17.4966
2.122	17.5048
2.1212	17.515
2.1203	17.5251
2.1194	17.5316
2.1186	17.5323
2.1177	17.5268
2.1168	17.5172
2.116	17.5024
2.1151	17.4815
2.1143	17.4601
2.1134	17.4447
2.1125	17.4392
2.1117	17.445
2.1108	17.461
2.11	17.4797
2.1091	17.489
2.1082	17.4813
2.1074	17.4603
2.1065	17.4349
2.1057	17.4148
2.1048	17.4088
2.104	17.4194
2.1031	17.4402
2.1023	17.4614
2.1014	17.4768
2.1005	17.4842
2.0997	17.483
2.0988	17.4749
2.098	17.4641
2.0971	17.4528
2.0963	17.4433
2.0955	17.438
2.0946	17.4392
2.0938	17.4447
2.0929	17.451
2.0921	17.4555
2.0912	17.4584
2.0904	17.4608
2.0895	17.4634
2.0887	17.4662
2.0879	17.4682
2.087	17.4656
2.0862	17.4519
2.0853	17.4301
2.0845	17.4035
2.0837	17.3675
2.0828	17.3569
2.082	17.3547
2.0812	17.3701
2.0803	17.5208
2.0795	17.5758
2.076	17.6969
2.072	17.6884
2.068	17.7324
2.064	17.6712
2.06	17.5348
2.056	17.5432
2.052	17.2997
2.048	17.2133
2.044	17.4054
2.04	17.6453
2.036	17.4307
2.032	17.311
2.028	17.311
2.024	17.2581
2.02	17.3376
2.016	17.2722
2.012	17.3314
2.008	17.1396
2.004	17.1397
2	17.1611
1.996	17.0567
1.992	17.1413
1.988	17.1793
1.984	17.011
1.98	16.9857
1.976	16.9229
1.972	16.8293
1.968	16.9565
1.964	16.641
1.96	16.699
1.956	16.7407
1.952	16.8078
1.948	16.7267
1.944	16.6634
1.94	16.7953
1.936	16.6159
1.932	16.4924
1.928	16.3177
1.924	16.3428
1.92	16.3427
1.916	16.0515
1.912	16.0765
1.908	16.052
1.904	15.8295
1.9	16.1116
1.896	16.2587
1.892	16.2514
1.888	16.488
1.884	16.61
1.88	16.724
1.876	16.8078
1.872	16.8484
1.868	16.7262
1.864	17.0754
1.86	17.0476
1.856	16.8971
1.852	16.8886
1.848	16.8754
1.844	16.9607
1.84	17.0318
1.836	17.0342
1.832	17.0295
1.828	17.0304
1.824	16.8886
1.82	16.9967
1.816	17.1437
1.812	16.914
1.808	16.914
1.804	16.948
1.8	17.1523
1.796	16.931
1.792	16.8971
1.788	16.8585
1.784	16.9736
1.78	16.965
1.776	17.0476
1.772	16.8937
1.768	16.9095
1.764	16.845
1.76	16.8791
1.756	16.8962
1.752	16.9522
1.748	16.68
1.744	16.6645
1.74	16.8839
1.736	16.7785
1.732	16.8458
1.728	16.9219
1.724	16.857
1.72	17.0209
1.716	16.9009
1.712	16.7283
1.708	16.965
1.704	16.6867
1.7	16.8331
1.696	16.7366
1.692	16.8839
1.688	16.7785
1.684	16.6884
1.68	16.5649
1.676	16.6621
1.672	16.4755
1.668	16.6816
1.664	16.7976
1.66	16.6902
1.656	16.7807
1.652	16.7807
1.648	16.417
1.644	16.5165
1.64	16.4088
1.636	16.4083
1.632	16.3837
1.628	16.3755
1.624	16.5743
1.62	16.6984
1.616	16.6649
1.612	16.533
1.608	16.5826
1.604	16.6491
1.6	16.7575
1.596	16.7659
1.592	16.749
1.588	16.5498
1.584	16.5582
1.58	16.3331
1.576	16.2746
1.572	16.6085
1.568	16.834
1.564	16.6994
1.56	16.7744
1.556	16.749
1.552	16.7153
1.548	16.5992
1.544	16.6575
1.54	16.6742
1.536	16.7656
1.532	16.6408
1.528	16.7488
1.524	16.6742
1.52	16.7162
1.516	16.4485
1.512	16.5325
1.508	16.7499
1.504	16.4899
1.5	16.5825
1.496	16.4046
1.492	16.3769
1.488	16.3875
1.484	16.4804
1.48	16.4392
1.476	16.3626
1.472	16.2863
1.468	16.5237
1.464	16.4142
1.46	16.532
1.456	16.3356
1.452	16.4619
1.448	16.5697
1.444	16.5346
1.44	16.5765
1.436	16.6467
1.432	16.7236
1.428	16.5874
1.424	16.6389
1.42	16.4785
1.416	16.3164
1.412	16.2883
1.408	16.0994
1.404	15.9283
1.4	16.1527
1.396	16.2067
1.392	16.2483
1.388	16.3512
1.384	16.4566
1.38	16.5495
1.376	16.68
1.372	16.8327
1.368	16.8059
1.364	16.6734
1.36	16.8732
1.356	16.8992
1.352	17.028
1.348	16.9471
1.344	17.2112
1.34	17.0737
1.336	17.1848
1.332	17.3299
1.328	17.3998
1.324	17.2892
1.32	17.2539
1.316	17.2712
1.312	17.3997
1.308	17.426
1.304	17.3728
1.3	17.4929
1.296	17.5193
1.292	17.6261
1.288	17.7337
1.284	17.5667
1.28	17.5982
1.276	17.6704
1.272	17.5077
1.268	17.7932
1.264	17.7195
1.26	17.7932
1.256	17.9069
1.252	17.8789
1.248	17.9901
1.244	17.8778
1.24	17.8595
1.236	17.9922
1.232	18.0106
1.228	17.8778
1.224	18.0014
1.22	17.9646
1.216	18.2605
1.212	18.3369
1.208	18.3556
1.204	18.2354
1.2	18.3306
1.196	18.1921
1.192	18.3977
1.188	18.5509
1.184	18.5721
1.18	18.5534
1.176	18.5202
1.172	18.6239
1.168	18.7275
1.164	18.7461
1.16	18.9116
1.156	18.9233
1.152	18.9139
1.148	18.932
1.144	18.8948
1.14	18.8661
1.136	18.8192
1.132	18.9916
1.128	19.3277
1.124	19.3669
1.12	19.5143
1.116	19.3978
1.112	19.3197
1.108	19.5312
1.104	19.3978
1.1	19.5441
1.096	19.5927
1.092	19.9619
1.088	20.0195
1.084	19.5251
1.08	19.851
1.076	19.9971
1.072	20.0682
1.068	20.0817
1.064	20.0784
1.06	20.109
1.056	20.0919
1.052	20.3083
1.048	20.264
1.044	20.1883
1.04	20.4116
1.036	20.422
1.032	20.3526
1.028	20.5637
1.024	20.8303
1.02	20.6588
1.016	20.9216
1.012	20.5135
1.008	20.4925
1.004	20.986
1	21.0509
0.996	21.0558
0.992	20.7876
0.988	21.0869
0.984	20.9054
0.98	20.9918
0.976	20.7121
0.972	20.5939
0.968	20.6094
0.964	20.4521
0.96	20.4521
0.956	20.4463
0.952	20.2397
0.948	20.2655
0.944	20.2337
0.94	20.2232
0.936	20.0305
0.932	19.9011
0.928	19.9406
0.924	19.6428
0.92	19.3247
0.916	19.2764
0.912	19.3064
0.908	19.3694
0.904	19.0516
0.9	19.2215
0.896	19.0199
0.892	18.9002
0.888	18.6321
0.884	18.9803
0.88	18.7451
0.876	18.5238
0.872	18.6562
0.868	18.874
0.864	18.5152
0.86	18.3759
0.856	18.423
0.852	18.5131
0.848	18.5785
0.844	18.5719
0.84	18.4487
0.836	18.413
0.832	18.5365
0.828	18.6332
0.824	18.4791
0.82	18.5923
0.816	18.5061
0.812	18.4657
0.808	18.4758
0.804	18.6272
0.8	18.5413
0.799	18.5413
0.798	18.5421
0.797	18.7461
0.796	18.6706
0.795	18.9696
0.794	18.9256
0.793	18.7131
0.792	18.7558
0.791	18.9472
0.79	18.7666
0.789	18.7558
0.788	18.7192
0.787	18.8312
0.786	18.6119
0.785	18.7773
0.784	18.8956
0.783	18.8096
0.782	18.8312
0.781	18.842
0.78	18.8312
0.779	19.152
0.778	18.8163
0.777	18.983
0.776	18.9611
0.775	18.9174
0.774	18.7838
0.773	18.9065
0.772	18.9065
0.771	18.7622
0.77	18.7514
0.769	18.7191
0.768	18.938
0.767	19.0369
0.766	18.8054
0.765	18.6825
0.764	18.881
0.763	18.769
0.762	18.6933
0.761	18.6718
0.76	18.6718
0.759	18.7257
0.758	18.6567
0.757	18.6567
0.756	18.4213
0.755	18.6567
0.754	18.8453
0.753	18.7436
0.752	18.5619
0.751	18.5835
0.75	18.5727
0.749	18.5286
0.748	18.6492
0.747	18.5038
0.746	18.4275
0.745	18.4821
0.744	18.3847
0.743	18.5294
0.742	18.3147
0.741	18.3254
0.74	18.4234
0.739	18.3234
0.738	18.2763
0.737	18.1203
0.736	17.9387
0.735	18.1203
0.734	18.1734
0.733	18.1522
0.732	18.2632
0.731	17.8308
0.73	18.0155
0.729	17.9626
0.728	17.9837
0.727	17.8286
0.726	17.7572
0.725	17.7468
0.724	17.8096
0.723	17.7273
0.722	17.6394
0.721	17.5716
0.72	17.3129
0.719	17.3068
0.718	17.3068
0.717	17.1821
0.716	17.3949
0.715	17.2395
0.714	17.1317
0.713	17.1518
0.712	17.0846
0.711	17.125
0.71	17.0608
0.709	16.7808
0.708	16.7215
0.707	16.6461
0.706	16.6461
0.705	16.531
0.704	16.6559
0.703	16.5604
0.702	16.5702
0.701	16.4548
0.7	16.3392
0.699	16.3295
0.698	16.3594
0.697	16.2407
0.696	16.1891
0.695	15.9767
0.694	15.9384
0.693	15.9384
0.692	15.9863
0.691	15.9767
0.69	15.9863
0.689	15.6216
0.688	15.731
0.687	15.7404
0.686	15.594
0.685	15.5567
0.684	15.4203
0.683	15.566
0.682	15.4757
0.681	15.422
0.68	15.5503
0.679	15.4034
0.678	15.2478
0.677	15.5487
0.676	15.4489
0.675	15.1648
0.674	14.9562
0.673	14.8287
0.672	14.9562
0.671	15.0826
0.67	14.9633
0.669	15.101
0.668	14.9542
0.667	14.9907
0.666	14.871
0.665	14.963
0.664	14.5736
0.663	14.5736
0.662	14.8808
0.661	14.5562
0.66	14.5162
0.659	14.4759
0.658	14.6415
0.657	14.6415
0.656	14.7049
0.655	14.6958
0.654	14.743
0.653	14.6415
0.652	14.4018
0.651	14.3753
0.65	14.3136
0.649	14.1582
0.648	14.34
0.647	14.1943
0.646	14.1682
0.645	14.0556
0.644	14.0066
0.643	13.998
0.642	14.2117
0.641	13.9125
0.64	13.8955
0.639	13.8785
0.638	13.8749
0.637	13.8099
0.636	13.8693
0.635	13.9293
0.634	13.9293
0.633	13.9121
0.632	13.9207
0.631	13.9354
0.63	13.9094
0.629	13.6623
0.628	13.6287
0.627	13.33
0.626	13.6357
0.625	13.6694
0.624	13.6119
0.623	13.3218
0.622	13.33
0.621	13.4039
0.62	13.3747
0.619	13.2372
0.618	13.1133
0.617	13.1133
0.616	13.1052
0.615	13.0972
0.614	13.18
0.613	12.9447
0.612	13.1556
0.611	13.0571
0.61	12.7927
0.609	12.9571
0.608	12.5516
0.607	12.5593
0.606	12.5747
0.605	12.5365
0.604	12.3552
0.603	12.4847
0.602	12.508
0.601	12.4322
0.6	12.5101
0.599	12.185
0.598	12.1891
0.597	12.0904
0.596	11.9585
0.595	11.8933
0.594	11.9007
0.593	11.7386
0.592	11.5906
0.591	11.465
0.59	11.4196
0.589	11.4053
0.588	11.3131
0.587	11.2966
0.586	11.1502
0.585	11.1923
0.584	10.8184
0.583	10.7805
0.582	10.56
0.581	10.5285
0.58	10.4534
0.579	10.5883
0.578	10.4023
0.577	9.8849
0.576	9.9601
0.575	9.8279
0.574	9.6535
0.573	9.5761
0.572	9.3934
0.571	9.3763
0.57	9.1352
0.569	9.0617
0.568	8.8343
0.567	8.8097
0.566	8.6187
0.565	8.8125
0.564	8.4748
0.563	8.2944
0.562	8.3046
0.561	8.2356
0.56	7.9596
0.559	7.6868
0.558	7.1972
0.557	7.1653
0.556	7.3129
0.555	7.1964
0.554	7.0521
0.553	7.2443
0.552	6.9981
0.551	6.8919
0.55	6.8107
0.549	6.6998
0.548	6.5539
0.547	6.6039
0.546	6.6233
0.545	6.6116
0.544	6.6233
0.543	6.3499
0.542	6.3247
0.541	6.484
0.54	6.2287
0.539	6.2579
0.538	6.2653
0.537	6.1368
0.536	6.0968
0.535	5.9685
0.534	5.9583
0.533	6.0761
0.532	5.9482
0.531	5.6599
0.53	5.663
0.529	5.666
0.528	5.8368
0.527	5.8368
0.526	5.8138
0.525	5.6599
0.524	5.5499
0.523	5.7053
0.522	5.4186
0.521	5.565
0.52	5.559
0.519	5.5379
0.518	5.4156
0.517	5.5469
0.516	5.5469
0.515	5.562
0.514	5.556
0.513	5.4849
0.512	5.4791
0.511	5.5681
0.51	5.4558
0.509	5.4529
0.508	5.4616
0.507	5.6815
0.506	5.5499
0.505	5.5439
0.504	5.556
0.503	5.4733
0.502	5.4996
0.501	5.4849
0.5	5.399
0.499	5.3934
0.498	5.4018
0.497	5.3962
0.496	5.3187
0.495	5.3295
0.494	5.456
0.493	5.2971
0.492	5.4253
0.491	5.2174
0.49	5.4018
0.489	5.3322
0.488	5.246
0.487	5.3377
0.486	5.3752
0.485	5.3806
0.484	5.3806
0.483	5.3046
0.482	5.1724
0.481	5.223
0.48	5.175
0.479	5.2181
0.478	5.0909
0.477	4.8945
0.476	5.2355
0.475	5.2355
0.474	5.066
0.473	4.8903
0.472	4.7624
0.471	4.9027
0.47	4.9006
0.469	4.8945
0.468	5.0224
0.467	4.8118
0.466	4.9379
0.465	4.942
0.464	4.7743
0.463	4.863
0.462	4.8649
0.461	4.8322
0.46	4.8287
0.459	4.9216
0.458	4.9337
0.457	5.0445
0.456	5.0353
0.455	5.0299
0.454	4.8791
0.453	4.8599
0.452	4.5152
0.451	4.4415
0.45	4.527
0.449	4.5828
0.448	4.7482
0.447	4.5737
0.446	4.4943
0.445	4.329
0.444	4.3209
0.443	4.3209
0.442	4.4564
0.441	4.4617
0.44	4.3803
0.439	4.3773
0.438	4.293
0.437	4.5545
0.436	4.5561
0.435	4.2111
0.434	4.2114
0.433	4.2128
0.432	4.1716
0.431	4.1706
0.43	4.1702
0.429	4.1702
0.428	3.9952
0.427	4.1277
0.426	3.9085
0.425	4.0403
0.424	3.9525
0.423	3.9516
0.422	3.9498
0.421	3.7735
0.42	3.9048
0.419	4.0406
0.418	3.8641
0.417	3.696
0.416	3.6099
0.415	3.6076
0.414	3.5205
0.413	3.6131
0.412	3.744
0.411	3.6542
0.41	3.567
0.409	3.5692
0.408	3.6542
0.407	3.697
0.406	3.2166
0.405	3.3367
0.404	3.3304
0.403	3.332
0.402	3.2451
0.401	3.1476
0.4	3.0566
