Name:  Mica Schist 
Type:  Rocks
Class:  Metamorphic 
Subclass: Schist 
Particle Size:  500-1500 Micrometer
Sample No.:   schist3.doc
Owner:  JHU
Wavelength Range:  All
Origin:  Sample No. 394, The Hunt and Salisbury Collection at the U.S. 
Geological Survey, Denver, Co.
Description:  A medium-grained somewhat foliated rock.  Bands of strained 
quartz with pressure solution effects alternate with irregular bands of biotite which 
have usually been altered to chlorite, associated with abundant magnetite and 
ferruginous staining.  Much less muscovite, usually as sericite, is also present.  
Green to slightly blue-green epidote crystals occur commonly throughout the 
rock.  
Measurement:  Directional (10 Degree) Hemispherical Reflectance
First Column:  X
Second Column:  Y  
X Units:  Wavelength (micrometers)
Y Units:  Reflectance (percent)
First X Value: 14.9831	
Last X Value:  0.4
Number of X Values: 2868
Additional Information:  None

14.9831	2.3705
14.9399	2.4231
14.897	2.4638
14.8543	2.4986
14.8119	2.5363
14.7697	2.5799
14.7277	2.622
14.686	2.653
14.6445	2.6639
14.6033	2.6545
14.5622	2.6313
14.5214	2.6038
14.4809	2.5796
14.4405	2.5597
14.4004	2.5403
14.3605	2.5178
14.3209	2.492
14.2814	2.4667
14.2422	2.4501
14.2032	2.4508
14.1643	2.4726
14.1258	2.5117
14.0874	2.5605
14.0492	2.6102
14.0112	2.653
13.9734	2.686
13.9359	2.7094
13.8985	2.7272
13.8614	2.7426
13.8244	2.7582
13.7876	2.7752
13.7511	2.794
13.7147	2.8146
13.6785	2.8373
13.6425	2.8636
13.6067	2.8934
13.5711	2.9251
13.5356	2.9557
13.5004	2.9803
13.4653	2.9943
13.4304	2.9943
13.3957	2.9801
13.3612	2.9548
13.3269	2.9235
13.2927	2.892
13.2587	2.8655
13.2249	2.8465
13.1912	2.8359
13.1577	2.833
13.1244	2.8397
13.0913	2.8591
13.0583	2.8974
13.0255	2.9614
12.9929	3.0561
12.9604	3.1809
12.9281	3.3275
12.8959	3.4805
12.8639	3.6197
12.8321	3.7256
12.8004	3.7843
12.7688	3.7924
12.7375	3.7595
12.7063	3.7045
12.6752	3.6512
12.6443	3.6197
12.6135	3.6193
12.5829	3.6448
12.5524	3.6787
12.5221	3.6965
12.4919	3.6754
12.4619	3.6029
12.432	3.4814
12.4023	3.3275
12.3727	3.1669
12.3432	3.0265
12.3139	2.9278
12.2847	2.8799
12.2557	2.8813
12.2268	2.9211
12.198	2.9839
12.1694	3.0566
12.1409	3.1293
12.1125	3.1984
12.0843	3.2633
12.0562	3.3254
12.0282	3.3865
12.0003	3.4473
11.9726	3.5082
11.945	3.5698
11.9176	3.6323
11.8903	3.6955
11.8631	3.759
11.836	3.822
11.809	3.8835
11.7822	3.9425
11.7555	3.9991
11.7289	4.0536
11.7024	4.1066
11.676	4.159
11.6498	4.2106
11.6237	4.2615
11.5977	4.3108
11.5718	4.3574
11.546	4.4007
11.5203	4.4405
11.4948	4.4768
11.4694	4.5104
11.444	4.5424
11.4188	4.5734
11.3937	4.6042
11.3688	4.6347
11.3439	4.6657
11.3191	4.6975
11.2944	4.7318
11.2699	4.7699
11.2455	4.813
11.2211	4.8611
11.1969	4.9139
11.1727	4.9708
11.1487	5.0302
11.1248	5.0899
11.101	5.1467
11.0773	5.1976
11.0536	5.2388
11.0301	5.2677
11.0067	5.2838
10.9834	5.2881
10.9602	5.2831
10.937	5.2727
10.914	5.259
10.8911	5.2443
10.8682	5.2301
10.8455	5.2173
10.8229	5.2066
10.8003	5.1993
10.7779	5.1967
10.7555	5.1995
10.7332	5.2097
10.7111	5.2284
10.689	5.258
10.667	5.3014
10.6451	5.361
10.6233	5.4397
10.6015	5.5379
10.5799	5.6554
10.5584	5.7894
10.5369	5.9372
10.5155	6.0952
10.4942	6.2607
10.473	6.4317
10.4519	6.6076
10.4309	6.7876
10.4099	6.9721
10.3891	7.1611
10.3683	7.3548
10.3476	7.5544
10.327	7.7595
10.3065	7.9698
10.286	8.1829
10.2656	8.3961
10.2454	8.6047
10.2251	8.805
10.205	8.995
10.185	9.1731
10.165	9.3398
10.1451	9.4968
10.1253	9.6467
10.1056	9.7919
10.0859	9.9356
10.0663	10.0817
10.0468	10.234
10.0274	10.395
10.008	10.566
9.9887	10.7458
9.9695	10.9309
9.9504	11.1157
9.9313	11.2942
9.9123	11.4624
9.8934	11.6179
9.8746	11.7626
9.8558	11.9012
9.8371	12.0418
9.8185	12.1951
9.7999	12.3715
9.7814	12.582
9.763	12.8366
9.7447	13.1414
9.7264	13.498
9.7082	13.899
9.69	14.3274
9.6719	14.7548
9.6539	15.1453
9.636	15.4582
9.6181	15.6561
9.6003	15.712
9.5825	15.6149
9.5649	15.3731
9.5472	15.0155
9.5297	14.5862
9.5122	14.1412
9.4948	13.7379
9.4774	13.4294
9.4601	13.2555
9.4429	13.2399
9.4257	13.3851
9.4086	13.6749
9.3916	14.0782
9.3746	14.5542
9.3577	15.0591
9.3408	15.5536
9.324	16.0085
9.3073	16.4057
9.2906	16.7403
9.274	17.0164
9.2574	17.2433
9.2409	17.4306
9.2245	17.5836
9.2081	17.7032
9.1918	17.7846
9.1755	17.8218
9.1593	17.8085
9.1431	17.7427
9.127	17.6269
9.111	17.4673
9.095	17.2738
9.0791	17.0569
9.0632	16.8269
9.0474	16.5932
9.0316	16.3633
9.0159	16.143
9.0003	15.937
8.9847	15.7466
8.9691	15.5699
8.9536	15.4023
8.9382	15.2365
8.9228	15.0648
8.9075	14.8798
8.8922	14.6771
8.877	14.4541
8.8618	14.2099
8.8467	13.9447
8.8316	13.6569
8.8166	13.346
8.8016	13.0114
8.7867	12.6533
8.7718	12.2735
8.757	11.8706
8.7422	11.4415
8.7275	10.9785
8.7129	10.4739
8.6982	9.9268
8.6837	9.3523
8.6692	8.7844
8.6547	8.2722
8.6403	7.8677
8.6259	7.6087
8.6116	7.5045
8.5973	7.5315
8.583	7.6416
8.5688	7.7775
8.5547	7.8912
8.5406	7.9546
8.5266	7.9629
8.5126	7.9284
8.4986	7.8694
8.4847	7.8031
8.4708	7.7403
8.457	7.6847
8.4432	7.6359
8.4295	7.5914
8.4158	7.5483
8.4022	7.5049
8.3886	7.4614
8.375	7.419
8.3615	7.3794
8.3481	7.3451
8.3347	7.3174
8.3213	7.2972
8.3079	7.284
8.2946	7.2759
8.2814	7.2714
8.2682	7.2688
8.255	7.2655
8.2419	7.2584
8.2288	7.243
8.2158	7.2139
8.2028	7.1644
8.1898	7.0877
8.1769	6.979
8.164	6.8352
8.1512	6.6567
8.1384	6.4473
8.1256	6.2138
8.1129	5.9659
8.1002	5.7127
8.0876	5.4636
8.075	5.2256
8.0624	5.0037
8.0499	4.7991
8.0374	4.6118
8.025	4.4386
8.0126	4.2774
8.0002	4.1246
7.9879	3.9785
7.9756	3.8381
7.9634	3.7029
7.9512	3.5736
7.939	3.4509
7.9268	3.336
7.9147	3.2304
7.9027	3.1345
7.8906	3.0481
7.8786	2.9709
7.8667	2.9022
7.8548	2.8418
7.8429	2.7902
7.831	2.748
7.8192	2.7153
7.8075	2.6907
7.7957	2.6718
7.784	2.6554
7.7723	2.6388
7.7607	2.6208
7.7491	2.6019
7.7375	2.5834
7.726	2.5676
7.7145	2.555
7.7031	2.5458
7.6916	2.5387
7.6802	2.5318
7.6689	2.5242
7.6575	2.5155
7.6462	2.5065
7.635	2.4977
7.6238	2.4913
7.6126	2.4885
7.6014	2.4894
7.5903	2.4937
7.5792	2.5003
7.5681	2.5076
7.5571	2.514
7.5461	2.5185
7.5351	2.5202
7.5242	2.5197
7.5133	2.5171
7.5024	2.5138
7.4916	2.5112
7.4807	2.51
7.47	2.5112
7.4592	2.515
7.4485	2.5211
7.4378	2.5294
7.4272	2.5384
7.4165	2.5481
7.4059	2.5578
7.3954	2.5676
7.3848	2.5766
7.3743	2.5851
7.3639	2.5934
7.3534	2.6014
7.343	2.6104
7.3326	2.6204
7.3223	2.6317
7.3119	2.6445
7.3016	2.6587
7.2914	2.6739
7.2811	2.6902
7.2709	2.7073
7.2607	2.7243
7.2506	2.7409
7.2404	2.7563
7.2303	2.77
7.2203	2.7823
7.2102	2.7935
7.2002	2.8044
7.1902	2.816
7.1803	2.8288
7.1703	2.8427
7.1604	2.8581
7.1506	2.8749
7.1407	2.8925
7.1309	2.9107
7.1211	2.9285
7.1113	2.945
7.1016	2.959
7.0919	2.9704
7.0822	2.9789
7.0725	2.986
7.0629	2.9929
7.0533	3.0007
7.0437	3.0109
7.0341	3.0232
7.0246	3.0367
7.0151	3.0502
7.0056	3.063
6.9962	3.0751
6.9867	3.0862
6.9773	3.0973
6.9679	3.1096
6.9586	3.1236
6.9493	3.1388
6.94	3.1551
6.9307	3.171
6.9214	3.1856
6.9122	3.1975
6.903	3.2067
6.8938	3.2138
6.8847	3.22
6.8755	3.2271
6.8664	3.2363
6.8573	3.2486
6.8483	3.2626
6.8393	3.2766
6.8302	3.2889
6.8213	3.2991
6.8123	3.3081
6.8034	3.3171
6.7944	3.3284
6.7855	3.3431
6.7767	3.3611
6.7678	3.3801
6.759	3.3981
6.7502	3.4132
6.7414	3.4248
6.7327	3.4331
6.7239	3.4402
6.7152	3.4485
6.7065	3.4594
6.6979	3.4736
6.6892	3.489
6.6806	3.5032
6.672	3.5134
6.6634	3.5184
6.6549	3.5196
6.6464	3.5198
6.6378	3.5229
6.6294	3.5312
6.6209	3.5442
6.6124	3.5601
6.604	3.5754
6.5956	3.5878
6.5872	3.597
6.5789	3.6046
6.5705	3.6136
6.5622	3.6254
6.5539	3.6403
6.5456	3.656
6.5374	3.6702
6.5292	3.6799
6.5209	3.6851
6.5128	3.6875
6.5046	3.6905
6.4964	3.6986
6.4883	3.714
6.4802	3.736
6.4721	3.7609
6.464	3.7829
6.456	3.7964
6.448	3.7978
6.4399	3.7886
6.432	3.7734
6.424	3.759
6.416	3.7514
6.4081	3.7535
6.4002	3.764
6.3923	3.7779
6.3844	3.7893
6.3766	3.7945
6.3687	3.7921
6.3609	3.7841
6.3531	3.7737
6.3454	3.7654
6.3376	3.7606
6.3299	3.7597
6.3221	3.7606
6.3144	3.7611
6.3068	3.7597
6.2991	3.7557
6.2914	3.7495
6.2838	3.7419
6.2762	3.7339
6.2686	3.7258
6.2611	3.7171
6.2535	3.7078
6.246	3.6979
6.2385	3.6872
6.231	3.6751
6.2235	3.6609
6.216	3.6444
6.2086	3.6259
6.2011	3.6062
6.1937	3.5873
6.1863	3.5714
6.179	3.5608
6.1716	3.5553
6.1643	3.5544
6.157	3.556
6.1496	3.5577
6.1424	3.5574
6.1351	3.5551
6.1278	3.5522
6.1206	3.5508
6.1134	3.5522
6.1062	3.5567
6.099	3.5619
6.0918	3.5646
6.0847	3.5605
6.0776	3.5503
6.0704	3.5371
6.0633	3.5262
6.0563	3.5236
6.0492	3.5331
6.0421	3.5539
6.0351	3.5811
6.0281	3.6069
6.0211	3.6254
6.0141	3.6335
6.0071	3.6318
6.0002	3.624
5.9932	3.6155
5.9863	3.6093
5.9794	3.6072
5.9725	3.6069
5.9657	3.6079
5.9588	3.6086
5.952	3.61
5.9451	3.614
5.9383	3.6219
5.9315	3.6337
5.9247	3.647
5.918	3.6576
5.9112	3.6635
5.9045	3.665
5.8978	3.6652
5.8911	3.6697
5.8844	3.6839
5.8777	3.7092
5.8711	3.7431
5.8644	3.7791
5.8578	3.8094
5.8512	3.8293
5.8446	3.8383
5.838	3.8402
5.8314	3.8421
5.8249	3.8494
5.8184	3.8648
5.8118	3.8861
5.8053	3.9077
5.7988	3.9229
5.7923	3.9281
5.7859	3.9238
5.7794	3.9136
5.773	3.9044
5.7666	3.9013
5.7602	3.9068
5.7538	3.9191
5.7474	3.9337
5.741	3.9461
5.7347	3.9527
5.7283	3.9532
5.722	3.9496
5.7157	3.9456
5.7094	3.9446
5.7031	3.9477
5.6969	3.9536
5.6906	3.9603
5.6844	3.9641
5.6782	3.9629
5.6719	3.9562
5.6657	3.9454
5.6596	3.933
5.6534	3.9224
5.6472	3.9157
5.6411	3.9143
5.6349	3.9172
5.6288	3.9226
5.6227	3.9283
5.6166	3.9319
5.6106	3.9321
5.6045	3.929
5.5984	3.924
5.5924	3.9195
5.5864	3.9172
5.5804	3.9186
5.5744	3.9236
5.5684	3.9314
5.5624	3.9409
5.5564	3.9508
5.5505	3.9607
5.5445	3.9712
5.5386	3.9823
5.5327	3.9944
5.5268	4.0072
5.5209	4.0202
5.5151	4.033
5.5092	4.0458
5.5033	4.0583
5.4975	4.0711
5.4917	4.0841
5.4859	4.0979
5.4801	4.1121
5.4743	4.1272
5.4685	4.1436
5.4628	4.1609
5.457	4.1784
5.4513	4.195
5.4455	4.2089
5.4398	4.2191
5.4341	4.2255
5.4284	4.2295
5.4228	4.2331
5.4171	4.2376
5.4114	4.2442
5.4058	4.2523
5.4002	4.2606
5.3945	4.2677
5.3889	4.2733
5.3833	4.2778
5.3778	4.2821
5.3722	4.2868
5.3666	4.2935
5.3611	4.3025
5.3555	4.3138
5.35	4.3283
5.3445	4.346
5.339	4.3671
5.3335	4.3913
5.328	4.4166
5.3225	4.442
5.3171	4.4649
5.3116	4.4853
5.3062	4.5031
5.3008	4.5201
5.2954	4.5386
5.29	4.5608
5.2846	4.5878
5.2792	4.6198
5.2738	4.6551
5.2684	4.6923
5.2631	4.7302
5.2578	4.7673
5.2524	4.8029
5.2471	4.837
5.2418	4.8694
5.2365	4.9007
5.2312	4.9315
5.226	4.9625
5.2207	4.9944
5.2154	5.0276
5.2102	5.0612
5.205	5.0949
5.1998	5.1268
5.1945	5.1564
5.1893	5.183
5.1842	5.2066
5.179	5.2279
5.1738	5.2478
5.1686	5.2675
5.1635	5.2874
5.1584	5.3078
5.1532	5.3286
5.1481	5.3499
5.143	5.371
5.1379	5.3913
5.1328	5.4103
5.1277	5.4276
5.1227	5.4434
5.1176	5.4579
5.1126	5.4709
5.1075	5.4828
5.1025	5.4932
5.0975	5.5015
5.0925	5.5079
5.0875	5.5126
5.0825	5.5166
5.0775	5.5211
5.0726	5.5263
5.0676	5.5325
5.0627	5.5391
5.0577	5.546
5.0528	5.5521
5.0479	5.5581
5.043	5.5633
5.038	5.5682
5.0332	5.5727
5.0283	5.5765
5.0234	5.5796
5.0185	5.582
5.0137	5.5844
5.0088	5.5877
5.004	5.5924
4.9992	5.5995
4.9944	5.6092
4.9896	5.6211
4.9848	5.6353
4.98	5.6509
4.9752	5.6677
4.9704	5.685
4.9657	5.7025
4.9609	5.7205
4.9562	5.738
4.9514	5.7546
4.9467	5.7695
4.942	5.7826
4.9373	5.7939
4.9326	5.8051
4.9279	5.8186
4.9232	5.837
4.9186	5.8619
4.9139	5.8943
4.9092	5.9337
4.9046	5.9782
4.9	6.0263
4.8953	6.0765
4.8907	6.1278
4.8861	6.1802
4.8815	6.2325
4.8769	6.2841
4.8723	6.3341
4.8678	6.381
4.8632	6.4241
4.8586	6.4634
4.8541	6.4999
4.8495	6.5345
4.845	6.5688
4.8405	6.6031
4.836	6.6382
4.8315	6.6728
4.827	6.7066
4.8225	6.7388
4.818	6.7691
4.8135	6.7973
4.809	6.8243
4.8046	6.8506
4.8001	6.8769
4.7957	6.9029
4.7913	6.9288
4.7868	6.9541
4.7824	6.9787
4.778	7.0036
4.7736	7.0294
4.7692	7.0569
4.7648	7.0867
4.7605	7.1182
4.7561	7.1507
4.7517	7.1824
4.7474	7.2122
4.7431	7.2399
4.7387	7.2653
4.7344	7.289
4.7301	7.311
4.7258	7.3309
4.7215	7.3477
4.7172	7.3598
4.7129	7.3662
4.7086	7.3662
4.7043	7.3605
4.7	7.3515
4.6958	7.342
4.6915	7.3361
4.6873	7.337
4.6831	7.3472
4.6788	7.3676
4.6746	7.3977
4.6704	7.4358
4.6662	7.4801
4.662	7.5286
4.6578	7.5805
4.6536	7.6347
4.6495	7.6904
4.6453	7.7462
4.6411	7.8007
4.637	7.8521
4.6328	7.8992
4.6287	7.9416
4.6246	7.9805
4.6205	8.0165
4.6163	8.0513
4.6122	8.0854
4.6081	8.119
4.604	8.1514
4.6	8.1817
4.5959	8.2092
4.5918	8.2338
4.5877	8.2561
4.5837	8.2765
4.5796	8.2954
4.5756	8.3132
4.5716	8.3298
4.5675	8.3447
4.5635	8.3575
4.5595	8.3662
4.5555	8.3703
4.5515	8.3688
4.5475	8.3615
4.5435	8.3487
4.5395	8.3319
4.5356	8.312
4.5316	8.29
4.5276	8.2658
4.5237	8.2395
4.5197	8.2109
4.5158	8.1808
4.5119	8.1505
4.508	8.1223
4.504	8.0982
4.5001	8.0794
4.4962	8.0659
4.4923	8.0572
4.4884	8.0517
4.4846	8.0489
4.4807	8.0482
4.4768	8.0508
4.473	8.0574
4.4691	8.07
4.4652	8.0884
4.4614	8.1121
4.4576	8.1398
4.4537	8.1694
4.4499	8.199
4.4461	8.2279
4.4423	8.2561
4.4385	8.2836
4.4347	8.3111
4.4309	8.3388
4.4271	8.3669
4.4233	8.3951
4.4196	8.4235
4.4158	8.4527
4.412	8.483
4.4083	8.5149
4.4045	8.5488
4.4008	8.5846
4.3971	8.6215
4.3934	8.6592
4.3896	8.6966
4.3859	8.7331
4.3822	8.7683
4.3785	8.802
4.3748	8.8337
4.3711	8.8643
4.3674	8.8936
4.3638	8.922
4.3601	8.9495
4.3564	8.9753
4.3528	8.9997
4.3491	9.022
4.3455	9.0421
4.3418	9.0596
4.3382	9.0741
4.3346	9.085
4.331	9.0921
4.3273	9.0954
4.3237	9.0954
4.3201	9.0918
4.3165	9.0857
4.3129	9.0771
4.3094	9.0667
4.3058	9.0549
4.3022	9.0421
4.2986	9.0284
4.2951	9.0146
4.2915	9.0007
4.288	8.9879
4.2844	8.9772
4.2809	8.9706
4.2774	8.9689
4.2738	8.9737
4.2703	8.9843
4.2668	8.9999
4.2633	9.0196
4.2598	9.0412
4.2563	9.0639
4.2528	9.0876
4.2493	9.112
4.2458	9.1382
4.2424	9.166
4.2389	9.1953
4.2354	9.2256
4.232	9.2557
4.2285	9.2846
4.2251	9.3118
4.2216	9.3365
4.2182	9.359
4.2148	9.3784
4.2113	9.3952
4.2079	9.4096
4.2045	9.4217
4.2011	9.4324
4.1977	9.4423
4.1943	9.4525
4.1909	9.4641
4.1875	9.4774
4.1841	9.4925
4.1808	9.5096
4.1774	9.5278
4.174	9.5463
4.1707	9.5638
4.1673	9.5794
4.164	9.5927
4.1606	9.6041
4.1573	9.6142
4.154	9.6247
4.1506	9.6365
4.1473	9.6502
4.144	9.6652
4.1407	9.6801
4.1374	9.6941
4.1341	9.7064
4.1308	9.718
4.1275	9.7298
4.1242	9.7426
4.1209	9.757
4.1177	9.7727
4.1144	9.7883
4.1111	9.8032
4.1079	9.8177
4.1046	9.8314
4.1014	9.8451
4.0981	9.8594
4.0949	9.874
4.0917	9.8887
4.0884	9.9027
4.0852	9.9157
4.082	9.9278
4.0788	9.9394
4.0756	9.9498
4.0724	9.9591
4.0692	9.9666
4.066	9.9721
4.0628	9.9756
4.0596	9.9778
4.0565	9.9792
4.0533	9.9811
4.0501	9.9842
4.047	9.9882
4.0438	9.9934
4.0406	9.9991
4.0375	10.005
4.0344	10.0104
4.0312	10.0152
4.0281	10.0187
4.025	10.0206
4.0218	10.0211
4.0187	10.0206
4.0156	10.0199
4.0125	10.0204
4.0094	10.023
4.0063	10.0282
4.0032	10.0358
4.0001	10.0448
3.997	10.054
3.994	10.063
3.9909	10.0715
3.9878	10.0798
3.9847	10.0884
3.9817	10.0976
3.9786	10.1073
3.9756	10.1168
3.9725	10.1253
3.9695	10.1329
3.9665	10.1395
3.9634	10.1459
3.9604	10.153
3.9574	10.1615
3.9544	10.1715
3.9513	10.1826
3.9483	10.1935
3.9453	10.2037
3.9423	10.2129
3.9393	10.2207
3.9363	10.2271
3.9333	10.2328
3.9304	10.238
3.9274	10.2428
3.9244	10.2473
3.9214	10.251
3.9185	10.2539
3.9155	10.2555
3.9126	10.2553
3.9096	10.2541
3.9067	10.2525
3.9037	10.2513
3.9008	10.2513
3.8979	10.2529
3.8949	10.2555
3.892	10.2579
3.8891	10.2591
3.8862	10.2584
3.8833	10.2555
3.8804	10.251
3.8775	10.2456
3.8746	10.2402
3.8717	10.2357
3.8688	10.2328
3.8659	10.2323
3.863	10.2342
3.8601	10.2378
3.8573	10.2425
3.8544	10.247
3.8515	10.2501
3.8487	10.251
3.8458	10.2503
3.843	10.2484
3.8401	10.2468
3.8373	10.2468
3.8344	10.2494
3.8316	10.2546
3.8288	10.2617
3.8259	10.2695
3.8231	10.2764
3.8203	10.2814
3.8175	10.284
3.8147	10.2849
3.8119	10.2849
3.8091	10.2849
3.8063	10.2859
3.8035	10.2875
3.8007	10.2896
3.7979	10.292
3.7951	10.2937
3.7924	10.2939
3.7896	10.293
3.7868	10.2904
3.7841	10.2863
3.7813	10.2814
3.7785	10.2757
3.7758	10.2702
3.773	10.2657
3.7703	10.2617
3.7676	10.2584
3.7648	10.2548
3.7621	10.2501
3.7594	10.2439
3.7566	10.2359
3.7539	10.2269
3.7512	10.2174
3.7485	10.2087
3.7458	10.2013
3.7431	10.1952
3.7404	10.1911
3.7377	10.189
3.735	10.1892
3.7323	10.1914
3.7296	10.1949
3.7269	10.1987
3.7242	10.202
3.7216	10.2037
3.7189	10.2039
3.7162	10.2027
3.7136	10.2013
3.7109	10.2001
3.7083	10.1999
3.7056	10.2008
3.703	10.2037
3.7003	10.2082
3.6977	10.2146
3.695	10.2217
3.6924	10.2295
3.6898	10.2368
3.6872	10.2432
3.6845	10.2492
3.6819	10.2548
3.6793	10.2605
3.6767	10.2664
3.6741	10.2728
3.6715	10.2802
3.6689	10.2882
3.6663	10.296
3.6637	10.3034
3.6611	10.3088
3.6585	10.3121
3.656	10.3129
3.6534	10.3121
3.6508	10.311
3.6482	10.3107
3.6457	10.3114
3.6431	10.3138
3.6406	10.3164
3.638	10.3192
3.6355	10.3214
3.6329	10.323
3.6304	10.3249
3.6278	10.3271
3.6253	10.3297
3.6227	10.3325
3.6202	10.3354
3.6177	10.3384
3.6152	10.3415
3.6127	10.3439
3.6101	10.3455
3.6076	10.3458
3.6051	10.3441
3.6026	10.3408
3.6001	10.337
3.5976	10.3335
3.5951	10.3304
3.5926	10.328
3.5901	10.3261
3.5876	10.3247
3.5852	10.3235
3.5827	10.3226
3.5802	10.3216
3.5777	10.3202
3.5753	10.3174
3.5728	10.3124
3.5704	10.3057
3.5679	10.2977
3.5654	10.2899
3.563	10.284
3.5605	10.2809
3.5581	10.2809
3.5557	10.283
3.5532	10.2863
3.5508	10.2892
3.5484	10.2908
3.5459	10.2911
3.5435	10.2899
3.5411	10.2878
3.5387	10.2847
3.5363	10.2806
3.5338	10.2757
3.5314	10.2705
3.529	10.2655
3.5266	10.2622
3.5242	10.261
3.5218	10.2617
3.5195	10.2636
3.5171	10.2657
3.5147	10.2669
3.5123	10.2662
3.5099	10.2634
3.5075	10.2577
3.5052	10.2494
3.5028	10.2383
3.5004	10.2252
3.4981	10.2122
3.4957	10.2013
3.4934	10.1942
3.491	10.1918
3.4887	10.194
3.4863	10.1985
3.484	10.2027
3.4816	10.2051
3.4793	10.2042
3.477	10.2008
3.4746	10.1959
3.4723	10.1904
3.47	10.1852
3.4677	10.1802
3.4653	10.1743
3.463	10.1665
3.4607	10.157
3.4584	10.1464
3.4561	10.1352
3.4538	10.1243
3.4515	10.1144
3.4492	10.1056
3.4469	10.0974
3.4446	10.0893
3.4423	10.082
3.44	10.0758
3.4378	10.0715
3.4355	10.0696
3.4332	10.0694
3.4309	10.0701
3.4287	10.0692
3.4264	10.0651
3.4241	10.0569
3.4219	10.0445
3.4196	10.0296
3.4174	10.013
3.4151	9.9969
3.4129	9.9823
3.4106	9.9692
3.4084	9.9579
3.4061	9.9474
3.4039	9.9382
3.4017	9.9292
3.3994	9.9212
3.3972	9.9133
3.395	9.9055
3.3928	9.897
3.3906	9.8871
3.3883	9.8752
3.3861	9.8617
3.3839	9.8468
3.3817	9.8319
3.3795	9.8179
3.3773	9.8056
3.3751	9.7954
3.3729	9.7876
3.3707	9.781
3.3685	9.7739
3.3663	9.7651
3.3641	9.754
3.362	9.7405
3.3598	9.7256
3.3576	9.7111
3.3554	9.6981
3.3533	9.6867
3.3511	9.6765
3.3489	9.6656
3.3468	9.6536
3.3446	9.6394
3.3425	9.6242
3.3403	9.609
3.3382	9.5955
3.336	9.5842
3.3339	9.5745
3.3317	9.5655
3.3296	9.5565
3.3274	9.5468
3.3253	9.5363
3.3232	9.5257
3.321	9.5153
3.3189	9.5053
3.3168	9.4944
3.3147	9.4814
3.3126	9.4653
3.3104	9.4459
3.3083	9.4234
3.3062	9.3997
3.3041	9.376
3.302	9.3538
3.2999	9.3339
3.2978	9.3161
3.2957	9.3007
3.2936	9.2877
3.2915	9.2765
3.2894	9.2668
3.2874	9.2576
3.2853	9.2472
3.2832	9.2342
3.2811	9.2178
3.279	9.1984
3.277	9.1773
3.2749	9.1567
3.2728	9.1375
3.2708	9.1205
3.2687	9.1051
3.2666	9.0899
3.2646	9.0734
3.2625	9.0554
3.2605	9.0359
3.2584	9.0165
3.2564	8.9978
3.2543	8.9808
3.2523	8.9651
3.2503	8.9497
3.2482	8.9339
3.2462	8.9171
3.2442	8.8993
3.2421	8.882
3.2401	8.8654
3.2381	8.8508
3.2361	8.8365
3.234	8.8221
3.232	8.806
3.23	8.7873
3.228	8.7655
3.226	8.7421
3.224	8.7184
3.222	8.6961
3.22	8.6765
3.218	8.6592
3.216	8.644
3.214	8.63
3.212	8.6161
3.21	8.6009
3.208	8.5839
3.206	8.5649
3.204	8.5446
3.2021	8.5237
3.2001	8.5033
3.1981	8.4844
3.1961	8.4666
3.1942	8.4496
3.1922	8.4321
3.1902	8.4138
3.1883	8.3954
3.1863	8.3771
3.1844	8.3605
3.1824	8.3461
3.1805	8.3338
3.1785	8.3224
3.1766	8.3106
3.1746	8.2973
3.1727	8.2824
3.1707	8.2665
3.1688	8.25
3.1669	8.2338
3.1649	8.218
3.163	8.2026
3.1611	8.1874
3.1591	8.1732
3.1572	8.1604
3.1553	8.1491
3.1534	8.1389
3.1515	8.1294
3.1495	8.1195
3.1476	8.1083
3.1457	8.0958
3.1438	8.0825
3.1419	8.069
3.14	8.056
3.1381	8.0434
3.1362	8.0316
3.1343	8.02
3.1324	8.0086
3.1305	7.9975
3.1286	7.9876
3.1268	7.9786
3.1249	7.9705
3.123	7.9627
3.1211	7.9542
3.1192	7.9445
3.1174	7.9338
3.1155	7.9229
3.1136	7.9127
3.1117	7.9037
3.1099	7.8966
3.108	7.8902
3.1061	7.8843
3.1043	7.8782
3.1024	7.8722
3.1006	7.8668
3.0987	7.862
3.0969	7.8573
3.095	7.8512
3.0932	7.8424
3.0913	7.8313
3.0895	7.8187
3.0876	7.8069
3.0858	7.7974
3.084	7.7915
3.0821	7.7884
3.0803	7.7865
3.0785	7.7844
3.0766	7.7815
3.0748	7.778
3.073	7.7749
3.0712	7.773
3.0694	7.7721
3.0675	7.7709
3.0657	7.7685
3.0639	7.765
3.0621	7.76
3.0603	7.7545
3.0585	7.7493
3.0567	7.7446
3.0549	7.7391
3.0531	7.7323
3.0513	7.7237
3.0495	7.714
3.0477	7.7036
3.0459	7.6946
3.0441	7.688
3.0423	7.6835
3.0406	7.6804
3.0388	7.6773
3.037	7.6733
3.0352	7.6674
3.0334	7.66
3.0317	7.6529
3.0299	7.6475
3.0281	7.6447
3.0264	7.6451
3.0246	7.6482
3.0228	7.6518
3.0211	7.6536
3.0193	7.6518
3.0176	7.6458
3.0158	7.6361
3.014	7.624
3.0123	7.6117
3.0105	7.6006
3.0088	7.5914
3.007	7.5833
3.0053	7.576
3.0036	7.5677
3.0018	7.5584
3.0001	7.5487
2.9984	7.539
2.9966	7.53
2.9949	7.5225
2.9932	7.5158
2.9914	7.509
2.9897	7.5009
2.988	7.4914
2.9863	7.4801
2.9845	7.4673
2.9828	7.4538
2.9811	7.4403
2.9794	7.4275
2.9777	7.4159
2.976	7.4062
2.9743	7.3986
2.9726	7.3929
2.9709	7.3882
2.9692	7.3827
2.9675	7.3749
2.9658	7.3631
2.9641	7.3477
2.9624	7.3299
2.9607	7.3122
2.959	7.2975
2.9573	7.2873
2.9556	7.2818
2.9539	7.28
2.9523	7.2795
2.9506	7.2788
2.9489	7.2762
2.9472	7.2714
2.9455	7.2648
2.9439	7.2565
2.9422	7.2475
2.9405	7.2385
2.9389	7.23
2.9372	7.2231
2.9355	7.2179
2.9339	7.2136
2.9322	7.2091
2.9306	7.203
2.9289	7.1945
2.9272	7.1843
2.9256	7.1746
2.9239	7.1672
2.9223	7.1639
2.9207	7.1644
2.919	7.167
2.9174	7.1698
2.9157	7.1708
2.9141	7.1698
2.9124	7.1684
2.9108	7.1684
2.9092	7.1703
2.9075	7.1736
2.9059	7.1769
2.9043	7.1784
2.9027	7.1774
2.901	7.1753
2.8994	7.1746
2.8978	7.1784
2.8962	7.1881
2.8946	7.2025
2.8929	7.2191
2.8913	7.2352
2.8897	7.2482
2.8881	7.2577
2.8865	7.2657
2.8849	7.2743
2.8833	7.2847
2.8817	7.297
2.8801	7.31
2.8785	7.3221
2.8769	7.3316
2.8753	7.338
2.8737	7.3425
2.8721	7.346
2.8705	7.3493
2.8689	7.3522
2.8673	7.3529
2.8658	7.3501
2.8642	7.3437
2.8626	7.3339
2.861	7.3238
2.8594	7.316
2.8579	7.3117
2.8563	7.3098
2.8547	7.3081
2.8531	7.3034
2.8516	7.293
2.85	7.2762
2.8484	7.2549
2.8469	7.2312
2.8453	7.2077
2.8437	7.1859
2.8422	7.1656
2.8406	7.145
2.8391	7.1229
2.8375	7.0981
2.836	7.0706
2.8344	7.0405
2.8329	7.0079
2.8313	6.9719
2.8298	6.9318
2.8282	6.8878
2.8267	6.8392
2.8252	6.7871
2.8236	6.7329
2.8221	6.677
2.8205	6.619
2.819	6.5584
2.8175	6.494
2.8159	6.4246
2.8144	6.3486
2.8129	6.2652
2.8114	6.1745
2.8098	6.0762
2.8083	5.9725
2.8068	5.8662
2.8053	5.7601
2.8038	5.6568
2.8022	5.5574
2.8007	5.4614
2.7992	5.3665
2.7977	5.2699
2.7962	5.1695
2.7947	5.065
2.7932	4.9577
2.7917	4.8507
2.7902	4.7467
2.7887	4.6487
2.7872	4.558
2.7857	4.4756
2.7842	4.4012
2.7827	4.334
2.7812	4.2736
2.7797	4.2186
2.7782	4.1682
2.7767	4.1204
2.7752	4.073
2.7738	4.0244
2.7723	3.9733
2.7708	3.9186
2.7693	3.861
2.7678	3.8018
2.7664	3.7422
2.7649	3.6834
2.7634	3.6271
2.7619	3.5743
2.7605	3.5269
2.759	3.4871
2.7575	3.4585
2.7561	3.4447
2.7546	3.4476
2.7531	3.466
2.7517	3.4963
2.7502	3.5319
2.7488	3.566
2.7473	3.5942
2.7458	3.6148
2.7444	3.6304
2.7429	3.6451
2.7415	3.6631
2.74	3.6879
2.7386	3.7218
2.7371	3.7651
2.7357	3.8184
2.7343	3.8824
2.7328	3.9577
2.7314	4.0446
2.7299	4.144
2.7285	4.2565
2.7271	4.3842
2.7256	4.5298
2.7242	4.6982
2.7228	4.8921
2.7213	5.1119
2.7199	5.353
2.7185	5.6064
2.7171	5.8598
2.7156	6.1016
2.7142	6.3227
2.7128	6.5188
2.7114	6.6896
2.71	6.8366
2.7085	6.9629
2.7071	7.0711
2.7057	7.1639
2.7043	7.2456
2.7029	7.3221
2.7015	7.4005
2.7001	7.4905
2.6987	7.6004
2.6973	7.7372
2.6959	7.9049
2.6945	8.1027
2.6931	8.3264
2.6917	8.5673
2.6903	8.8152
2.6889	9.0599
2.6875	9.2919
2.6861	9.5055
2.6847	9.6957
2.6833	9.861
2.6819	10.0014
2.6805	10.1198
2.6791	10.2184
2.6778	10.2996
2.6764	10.365
2.675	10.4149
2.6736	10.4502
2.6722	10.4729
2.6709	10.4898
2.6695	10.5111
2.6681	10.5461
2.6667	10.6011
2.6654	10.6761
2.664	10.7659
2.6626	10.8587
2.6613	10.9428
2.6599	11.01
2.6585	11.0586
2.6572	11.0913
2.6558	11.1133
2.6545	11.1325
2.6531	11.1528
2.6517	11.176
2.6504	11.2007
2.649	11.2251
2.6477	11.2476
2.6463	11.2679
2.645	11.2874
2.6436	11.3072
2.6423	11.3283
2.6409	11.3496
2.6396	11.3679
2.6382	11.3785
2.6369	11.3781
2.6356	11.3648
2.6342	11.3413
2.6329	11.3141
2.6315	11.2916
2.6302	11.2819
2.6289	11.2883
2.6275	11.308
2.6262	11.3331
2.6249	11.3546
2.6236	11.3655
2.6222	11.3638
2.6209	11.3548
2.6196	11.347
2.6183	11.348
2.6169	11.3603
2.6156	11.3818
2.6143	11.4055
2.613	11.4216
2.6117	11.423
2.6103	11.41
2.609	11.3892
2.6077	11.3707
2.6064	11.3657
2.6051	11.3811
2.6038	11.414
2.6025	11.4522
2.6012	11.4794
2.5999	11.4846
2.5986	11.4661
2.5973	11.4337
2.596	11.4041
2.5947	11.3942
2.5934	11.4112
2.5921	11.45
2.5908	11.4965
2.5895	11.5362
2.5882	11.5609
2.5869	11.5703
2.5856	11.5722
2.5843	11.576
2.583	11.5876
2.5817	11.6063
2.5805	11.6267
2.5792	11.6428
2.5779	11.6516
2.5766	11.6537
2.5753	11.653
2.5741	11.6539
2.5728	11.6601
2.5715	11.6715
2.5702	11.685
2.569	11.6973
2.5677	11.706
2.5664	11.7098
2.5651	11.711
2.5639	11.7131
2.5626	11.7207
2.5613	11.7368
2.5601	11.7603
2.5588	11.7882
2.5575	11.8152
2.5563	11.8361
2.555	11.8484
2.5538	11.8529
2.5525	11.8524
2.5513	11.851
2.55	11.8512
2.5487	11.8536
2.5475	11.8578
2.5462	11.8626
2.545	11.8671
2.5437	11.8718
2.5425	11.8775
2.5413	11.8844
2.54	11.8919
2.5388	11.8995
2.5375	11.9062
2.5363	11.9114
2.535	11.9152
2.5338	11.9173
2.5326	11.9175
2.5313	11.9159
2.5301	11.9118
2.5289	11.9062
2.5276	11.9005
2.5264	11.896
2.5252	11.8941
2.5239	11.8948
2.5227	11.8974
2.5215	11.9002
2.5202	11.9012
2.519	11.8993
2.5178	11.8943
2.5166	11.8863
2.5154	11.8756
2.5141	11.8631
2.5129	11.8498
2.5117	11.837
2.5105	11.8259
2.5093	11.8173
2.5081	11.8126
2.5068	11.8117
2.5056	11.814
2.5044	11.819
2.5032	11.8256
2.502	11.8318
2.5008	11.8363
2.4996	11.8375
2.4984	11.8351
2.4972	11.8289
2.496	11.8207
2.4948	11.8117
2.4936	11.8036
2.4924	11.7977
2.4912	11.7941
2.49	11.7925
2.4888	11.7913
2.4876	11.7894
2.4864	11.7863
2.4852	11.7823
2.484	11.7783
2.4828	11.7759
2.4816	11.7757
2.4805	11.7771
2.4793	11.779
2.4781	11.7792
2.4769	11.7766
2.4757	11.7707
2.4745	11.7624
2.4734	11.7534
2.4722	11.7451
2.471	11.7378
2.4698	11.7314
2.4686	11.7252
2.4675	11.7188
2.4663	11.712
2.4651	11.7051
2.464	11.6985
2.4628	11.6918
2.4616	11.6852
2.4604	11.6788
2.4593	11.6722
2.4581	11.666
2.4569	11.6601
2.4558	11.6542
2.4546	11.6478
2.4535	11.6409
2.4523	11.6336
2.4511	11.626
2.45	11.6194
2.4488	11.6139
2.4477	11.6106
2.4465	11.6094
2.4454	11.6108
2.4442	11.6142
2.4431	11.6184
2.4419	11.6236
2.4408	11.6286
2.4396	11.6329
2.4385	11.6367
2.4373	11.6404
2.4362	11.6452
2.435	11.6516
2.4339	11.6599
2.4327	11.6693
2.4316	11.6783
2.4305	11.6859
2.4293	11.6914
2.4282	11.6951
2.427	11.6994
2.4259	11.7056
2.4248	11.715
2.4236	11.7281
2.4225	11.7439
2.4214	11.7615
2.4202	11.779
2.4191	11.7958
2.418	11.8114
2.4169	11.8256
2.4157	11.8377
2.4146	11.8469
2.4135	11.8536
2.4124	11.8586
2.4112	11.8631
2.4101	11.8692
2.409	11.878
2.4079	11.8893
2.4068	11.9007
2.4056	11.9099
2.4045	11.9144
2.4034	11.9144
2.4023	11.9109
2.4012	11.9064
2.4001	11.9028
2.399	11.9014
2.3979	11.9019
2.3967	11.9031
2.3956	11.9035
2.3945	11.9033
2.3934	11.9024
2.3923	11.9009
2.3912	11.899
2.3901	11.8964
2.389	11.8929
2.3879	11.8891
2.3868	11.8855
2.3857	11.8839
2.3846	11.8853
2.3835	11.8898
2.3824	11.8972
2.3813	11.9059
2.3802	11.9152
2.3791	11.9237
2.3781	11.931
2.377	11.9372
2.3759	11.9424
2.3748	11.9469
2.3737	11.9509
2.3726	11.9547
2.3715	11.9578
2.3704	11.9604
2.3694	11.9623
2.3683	11.963
2.3672	11.9625
2.3661	11.9611
2.365	11.9587
2.364	11.9556
2.3629	11.9519
2.3618	11.9471
2.3607	11.9412
2.3597	11.9341
2.3586	11.9263
2.3575	11.9185
2.3564	11.9121
2.3554	11.9083
2.3543	11.9071
2.3532	11.9078
2.3522	11.909
2.3511	11.9088
2.35	11.9064
2.349	11.9021
2.3479	11.8974
2.3468	11.8945
2.3458	11.8955
2.3447	11.9014
2.3436	11.9118
2.3426	11.9249
2.3415	11.9388
2.3405	11.9523
2.3394	11.9654
2.3384	11.9784
2.3373	11.9926
2.3363	12.0085
2.3352	12.0255
2.3342	12.0428
2.3331	12.0591
2.3321	12.0743
2.331	12.089
2.33	12.1046
2.3289	12.1219
2.3279	12.1408
2.3268	12.1607
2.3258	12.1801
2.3247	12.1986
2.3237	12.2159
2.3226	12.233
2.3216	12.2507
2.3206	12.2697
2.3195	12.2903
2.3185	12.3118
2.3175	12.3341
2.3164	12.3556
2.3154	12.3758
2.3144	12.3942
2.3133	12.411
2.3123	12.4269
2.3113	12.4435
2.3102	12.4617
2.3092	12.4821
2.3082	12.5039
2.3071	12.5252
2.3061	12.5446
2.3051	12.5602
2.3041	12.5723
2.303	12.5813
2.302	12.5889
2.301	12.596
2.3	12.6038
2.299	12.6133
2.2979	12.6239
2.2969	12.6355
2.2959	12.6476
2.2949	12.6592
2.2939	12.6701
2.2929	12.6801
2.2918	12.6895
2.2908	12.6985
2.2898	12.7078
2.2888	12.717
2.2878	12.726
2.2868	12.7343
2.2858	12.7421
2.2848	12.749
2.2838	12.7554
2.2828	12.7603
2.2818	12.7641
2.2808	12.7653
2.2798	12.7641
2.2787	12.7603
2.2777	12.7549
2.2767	12.7495
2.2757	12.7452
2.2747	12.7438
2.2738	12.7459
2.2728	12.7509
2.2718	12.7573
2.2708	12.7627
2.2698	12.7656
2.2688	12.7644
2.2678	12.7596
2.2668	12.7528
2.2658	12.7457
2.2648	12.7395
2.2638	12.7345
2.2628	12.7296
2.2618	12.7234
2.2609	12.7146
2.2599	12.7023
2.2589	12.6872
2.2579	12.6706
2.2569	12.6543
2.2559	12.6398
2.255	12.628
2.254	12.6192
2.253	12.6133
2.252	12.6088
2.251	12.6045
2.2501	12.5991
2.2491	12.591
2.2481	12.5797
2.2471	12.5657
2.2462	12.5503
2.2452	12.5356
2.2442	12.5231
2.2433	12.5136
2.2423	12.5067
2.2413	12.502
2.2403	12.4984
2.2394	12.4953
2.2384	12.4927
2.2374	12.4916
2.2365	12.4923
2.2355	12.4953
2.2345	12.5003
2.2336	12.5062
2.2326	12.5112
2.2317	12.5131
2.2307	12.5107
2.2297	12.5041
2.2288	12.4946
2.2278	12.4847
2.2269	12.4752
2.2259	12.4669
2.225	12.4584
2.224	12.4477
2.2231	12.4319
2.2221	12.4106
2.2211	12.3838
2.2202	12.3533
2.2192	12.3211
2.2183	12.2893
2.2173	12.2585
2.2164	12.2287
2.2155	12.1984
2.2145	12.1664
2.2136	12.1318
2.2126	12.0951
2.2117	12.0572
2.2107	12.0201
2.2098	11.9852
2.2088	11.954
2.2079	11.9263
2.207	11.9026
2.206	11.8822
2.2051	11.8657
2.2041	11.8531
2.2032	11.8453
2.2023	11.8429
2.2013	11.8469
2.2004	11.8574
2.1995	11.8739
2.1985	11.8955
2.1976	11.9213
2.1967	11.9502
2.1957	11.981
2.1948	12.0132
2.1939	12.0468
2.193	12.0823
2.192	12.1209
2.1911	12.1638
2.1902	12.2119
2.1893	12.2652
2.1883	12.3232
2.1874	12.384
2.1865	12.4442
2.1856	12.501
2.1846	12.5512
2.1837	12.5943
2.1828	12.631
2.1819	12.663
2.181	12.6926
2.18	12.722
2.1791	12.7521
2.1782	12.7826
2.1773	12.8129
2.1764	12.842
2.1755	12.8683
2.1746	12.8915
2.1736	12.9114
2.1727	12.9285
2.1718	12.9444
2.1709	12.9595
2.17	12.9749
2.1691	12.9903
2.1682	13.005
2.1673	13.0182
2.1664	13.0294
2.1655	13.0379
2.1646	13.0443
2.1637	13.0497
2.1628	13.0552
2.1619	13.062
2.161	13.0722
2.1601	13.0862
2.1592	13.103
2.1583	13.1205
2.1574	13.1357
2.1565	13.1459
2.1556	13.1499
2.1547	13.149
2.1538	13.1464
2.1529	13.1456
2.152	13.1494
2.1511	13.1575
2.1502	13.1689
2.1493	13.1814
2.1484	13.1925
2.1475	13.2008
2.1466	13.206
2.1458	13.2086
2.1449	13.2089
2.144	13.2067
2.1431	13.2032
2.1422	13.1994
2.1413	13.1966
2.1404	13.1954
2.1396	13.1975
2.1387	13.2032
2.1378	13.2117
2.1369	13.2214
2.136	13.229
2.1352	13.2326
2.1343	13.2302
2.1334	13.2226
2.1325	13.212
2.1316	13.203
2.1308	13.1994
2.1299	13.2027
2.129	13.2127
2.1281	13.2262
2.1273	13.2387
2.1264	13.2468
2.1255	13.2484
2.1247	13.2444
2.1238	13.2375
2.1229	13.2304
2.122	13.2257
2.1212	13.224
2.1203	13.2255
2.1194	13.2285
2.1186	13.2326
2.1177	13.2368
2.1168	13.2416
2.116	13.2465
2.1151	13.2522
2.1143	13.2586
2.1134	13.2652
2.1125	13.2721
2.1117	13.2792
2.1108	13.2861
2.11	13.292
2.1091	13.2965
2.1082	13.2993
2.1074	13.301
2.1065	13.3024
2.1057	13.305
2.1048	13.309
2.104	13.3145
2.1031	13.3199
2.1023	13.3237
2.1014	13.3254
2.1005	13.3249
2.0997	13.3237
2.0988	13.323
2.098	13.3242
2.0971	13.3278
2.0963	13.333
2.0955	13.3382
2.0946	13.3422
2.0938	13.3446
2.0929	13.3448
2.0921	13.3436
2.0912	13.3424
2.0904	13.3424
2.0895	13.3443
2.0887	13.3476
2.0879	13.3517
2.087	13.3566
2.0862	13.3638
2.0853	13.3706
2.0845	13.3844
2.0837	13.4
2.0828	13.4069
2.082	13.4282
2.0812	13.4047
2.0803	13.363
2.0795	13.3597
2.076	13.4643
2.072	13.4826
2.068	13.4234
2.064	13.4549
2.06	13.5843
2.056	13.5522
2.052	13.418
2.048	13.4923
2.044	13.5153
2.04	13.53
2.036	13.3991
2.032	13.6186
2.028	13.6414
2.024	13.6091
2.02	13.5166
2.016	13.4375
2.012	13.4052
2.008	13.4711
2.004	13.5856
2	13.5335
1.996	13.5525
1.992	13.4121
1.988	13.3606
1.984	13.475
1.98	13.3981
1.976	13.384
1.972	13.4029
1.968	13.3746
1.964	13.3886
1.96	13.4409
1.956	13.4409
1.952	13.4076
1.948	13.5501
1.944	13.3789
1.94	13.4705
1.936	13.4713
1.932	13.3942
1.928	13.3069
1.924	13.3505
1.92	13.37
1.916	13.438
1.912	13.3748
1.908	13.3942
1.904	13.4427
1.9	13.439
1.896	13.4906
1.892	13.5067
1.888	13.5155
1.884	13.4183
1.88	13.5023
1.876	13.566
1.872	13.5039
1.868	13.4894
1.864	13.5791
1.86	13.5475
1.856	13.5728
1.852	13.6348
1.848	13.646
1.844	13.7042
1.84	13.7402
1.836	13.7502
1.832	13.6629
1.828	13.6892
1.824	13.6737
1.82	13.6348
1.816	13.6737
1.812	13.6082
1.808	13.6374
1.804	13.7136
1.8	13.5406
1.796	13.5932
1.792	13.6294
1.788	13.6001
1.784	13.5599
1.78	13.6294
1.776	13.6099
1.772	13.5266
1.768	13.6334
1.764	13.5266
1.76	13.5889
1.756	13.6224
1.752	13.5836
1.748	13.6126
1.744	13.6084
1.74	13.6474
1.736	13.6376
1.732	13.6041
1.728	13.6138
1.724	13.6236
1.72	13.772
1.716	13.7226
1.712	13.7226
1.708	13.5457
1.704	13.6558
1.7	13.498
1.696	13.6558
1.692	13.5314
1.688	13.541
1.684	13.6712
1.68	13.6279
1.676	13.5414
1.672	13.6138
1.668	13.6572
1.664	13.5362
1.66	13.5217
1.656	13.5506
1.652	13.594
1.648	13.6966
1.644	13.6966
1.64	13.4576
1.636	13.594
1.632	13.6488
1.628	13.5311
1.624	13.565
1.62	13.6488
1.616	13.5953
1.612	13.565
1.608	13.5408
1.604	13.5844
1.6	13.5844
1.596	13.5699
1.592	13.5505
1.588	13.5408
1.584	13.467
1.58	13.5457
1.576	13.5457
1.572	13.7462
1.568	13.6184
1.564	13.5457
1.56	13.565
1.556	13.5796
1.552	13.6184
1.548	13.7622
1.544	13.5581
1.54	13.587
1.536	13.6018
1.532	13.5729
1.528	13.5921
1.524	13.6962
1.52	13.7902
1.516	13.6765
1.512	13.4955
1.508	13.5729
1.504	13.7039
1.5	13.671
1.496	13.5906
1.492	13.5712
1.488	13.5765
1.484	13.5862
1.48	13.5331
1.476	13.5519
1.472	13.6205
1.468	13.6548
1.464	13.5675
1.46	13.6502
1.456	13.5921
1.452	13.5921
1.448	13.5006
1.444	13.5483
1.44	13.5084
1.436	13.5716
1.432	13.4837
1.428	13.5179
1.424	13.4645
1.42	13.4797
1.416	13.4301
1.412	13.2703
1.408	13.0391
1.404	13.0514
1.4	13.0499
1.396	13.0902
1.392	13.0994
1.388	13.2881
1.384	13.449
1.38	13.5134
1.376	13.5879
1.372	13.5967
1.368	13.549
1.364	13.6297
1.36	13.6124
1.356	13.6235
1.352	13.568
1.348	13.7139
1.344	13.6294
1.34	13.5613
1.336	13.5794
1.332	13.6695
1.328	13.6639
1.324	13.6111
1.32	13.608
1.316	13.6258
1.312	13.6264
1.308	13.6239
1.304	13.6618
1.3	13.6713
1.296	13.602
1.292	13.5956
1.288	13.624
1.284	13.6473
1.28	13.6506
1.276	13.6332
1.272	13.6927
1.268	13.7246
1.264	13.6796
1.26	13.7744
1.256	13.7892
1.252	13.7425
1.248	13.762
1.244	13.8724
1.24	13.7319
1.236	13.5877
1.232	13.6988
1.228	13.62
1.224	13.5917
1.22	13.62
1.216	13.6202
1.212	13.7861
1.208	13.6842
1.204	13.6186
1.2	13.6351
1.196	13.6554
1.192	13.6278
1.188	13.7177
1.184	13.6885
1.18	13.7433
1.176	13.7595
1.172	13.7397
1.168	13.7363
1.164	13.7291
1.16	13.7476
1.156	13.6591
1.152	13.6643
1.148	13.6409
1.144	13.8376
1.14	13.8333
1.136	13.7553
1.132	13.8952
1.128	13.8085
1.124	13.9105
1.12	13.8443
1.116	13.8782
1.112	13.8876
1.108	13.9328
1.104	13.8318
1.1	13.8411
1.096	13.7626
1.092	13.9756
1.088	13.9751
1.084	13.9846
1.08	14.1958
1.076	14.1019
1.072	14.1185
1.068	13.9965
1.064	14.1516
1.06	14.1612
1.056	14.0884
1.052	14.1749
1.048	14.2983
1.044	14.3178
1.04	14.3473
1.036	14.1795
1.032	14.3178
1.028	14.2483
1.024	14.2483
1.02	14.5131
1.016	14.4932
1.012	14.5801
1.008	14.5032
1.004	14.4397
1	14.5455
0.996	14.5023
0.992	14.5253
0.988	14.6092
0.984	14.4823
0.98	14.5658
0.976	14.5261
0.972	14.6358
0.968	14.7137
0.964	14.6826
0.96	14.6826
0.956	14.7295
0.952	14.6979
0.948	14.8191
0.944	14.7818
0.94	14.8107
0.936	14.7896
0.932	14.693
0.928	14.9441
0.924	14.8911
0.92	14.8603
0.916	15.0542
0.912	15.0888
0.908	15.1018
0.904	15.0629
0.9	15.1788
0.896	15.2023
0.892	15.1604
0.888	15.3526
0.884	15.4493
0.88	15.5603
0.876	15.4123
0.872	15.4838
0.868	15.544
0.864	15.7921
0.86	15.7914
0.856	15.7914
0.852	15.8396
0.848	15.777
0.844	15.9143
0.84	15.9394
0.836	16.0267
0.832	16.2144
0.828	16.2263
0.824	16.2883
0.82	16.399
0.816	16.3616
0.812	16.5065
0.808	16.4959
0.804	16.5078
0.8	16.5942
0.799	16.4433
0.798	16.4473
0.797	16.5431
0.796	16.5373
0.795	16.5085
0.794	16.4861
0.793	16.4491
0.792	16.6425
0.791	16.6197
0.79	16.6342
0.789	16.5574
0.788	16.4861
0.787	16.4719
0.786	16.5081
0.785	16.6076
0.784	16.428
0.783	16.6013
0.782	16.5681
0.781	16.4511
0.78	16.4479
0.779	16.5139
0.778	16.5946
0.777	16.5946
0.776	16.5368
0.775	16.5766
0.774	16.4875
0.773	16.3873
0.772	16.4444
0.771	16.4816
0.77	16.5766
0.769	16.5104
0.768	16.5127
0.767	16.6608
0.766	16.5829
0.765	16.5454
0.764	16.5565
0.763	16.4839
0.762	16.4129
0.761	16.5447
0.76	16.5337
0.759	16.4935
0.758	16.4935
0.757	16.3986
0.756	16.3843
0.755	16.4878
0.754	16.656
0.753	16.5955
0.752	16.5955
0.751	16.7121
0.75	16.648
0.749	16.4793
0.748	16.2571
0.747	16.4825
0.746	16.5119
0.745	16.6252
0.744	16.5431
0.743	16.5021
0.742	16.471
0.741	16.4627
0.74	16.4363
0.739	16.5531
0.738	16.3867
0.737	16.6888
0.736	16.6358
0.735	16.4804
0.734	16.4333
0.733	16.358
0.732	16.504
0.731	16.4461
0.73	16.5867
0.729	16.5418
0.728	16.381
0.727	16.4103
0.726	16.3495
0.725	16.5109
0.724	16.4729
0.723	16.5027
0.722	16.5408
0.721	16.6017
0.72	16.4878
0.719	16.4729
0.718	16.3323
0.717	16.4565
0.716	16.4184
0.715	16.3803
0.714	16.4184
0.713	16.3359
0.712	16.4657
0.711	16.5568
0.71	16.435
0.709	16.3528
0.708	16.3759
0.707	16.4184
0.706	16.6023
0.705	16.5947
0.704	16.5261
0.703	16.7108
0.702	16.4333
0.701	16.5795
0.7	16.5413
0.699	16.4649
0.698	16.5358
0.697	16.4967
0.696	16.4811
0.695	16.5218
0.694	16.53
0.693	16.8273
0.692	16.724
0.691	16.6532
0.69	16.7081
0.689	16.7081
0.688	16.7399
0.687	16.468
0.686	16.5545
0.685	16.6848
0.684	16.6438
0.683	16.669
0.682	16.614
0.681	16.614
0.68	16.5201
0.679	16.5963
0.678	16.6438
0.677	16.5906
0.676	16.5358
0.675	16.614
0.674	16.6532
0.673	16.6756
0.672	16.6298
0.671	16.6848
0.67	16.5498
0.669	16.4871
0.668	16.45
0.667	16.5906
0.666	16.5813
0.665	16.613
0.664	16.7629
0.663	16.7002
0.662	16.7145
0.661	16.6576
0.66	16.7148
0.659	16.6364
0.658	16.5345
0.657	16.5579
0.656	16.503
0.655	16.3955
0.654	16.5422
0.653	16.6504
0.652	16.6504
0.651	16.6523
0.65	16.613
0.649	16.5909
0.648	16.6752
0.647	16.6271
0.646	16.5868
0.645	16.6185
0.644	16.5107
0.643	16.372
0.642	16.4248
0.641	16.4308
0.64	16.5965
0.639	16.7306
0.638	16.7145
0.637	16.7056
0.636	16.6344
0.635	16.6258
0.634	16.5879
0.633	16.7056
0.632	16.572
0.631	16.613
0.63	16.7468
0.629	16.6912
0.628	16.634
0.627	16.5879
0.626	16.5403
0.625	16.6185
0.624	16.7145
0.623	16.6824
0.622	16.6112
0.621	16.6344
0.62	16.6431
0.619	16.7055
0.618	16.5661
0.617	16.6458
0.616	16.8196
0.615	16.7325
0.614	16.6679
0.613	16.7055
0.612	16.5879
0.611	16.6518
0.61	16.589
0.609	16.605
0.608	16.5976
0.607	16.558
0.606	16.574
0.605	16.6694
0.604	16.6062
0.603	16.503
0.602	16.631
0.601	16.6159
0.6	16.5844
0.599	16.5279
0.598	16.4798
0.597	16.6425
0.596	16.5852
0.595	16.6102
0.594	16.5852
0.593	16.6751
0.592	16.5689
0.591	16.5847
0.59	16.6257
0.589	16.6257
0.588	16.5526
0.587	16.5852
0.586	16.4475
0.585	16.5528
0.584	16.5039
0.583	16.5284
0.582	16.6573
0.581	16.5279
0.58	16.5604
0.579	16.4555
0.578	16.5441
0.577	16.4555
0.576	16.2876
0.575	16.3117
0.574	16.2486
0.573	16.2972
0.572	16.4294
0.571	16.244
0.57	16.1001
0.569	16.2762
0.568	16.337
0.567	16.461
0.566	16.3762
0.565	16.337
0.564	16.2885
0.563	16.2195
0.562	16.172
0.561	16.2489
0.56	16.2013
0.559	16.2799
0.558	15.8707
0.557	15.8261
0.556	15.772
0.555	15.9098
0.554	15.9489
0.553	15.8258
0.552	15.8061
0.551	15.8723
0.55	15.7836
0.549	15.7193
0.548	15.6151
0.547	15.7322
0.546	15.6958
0.545	15.7107
0.544	15.6353
0.543	15.606
0.542	15.552
0.541	15.4878
0.54	15.4051
0.539	15.4629
0.538	15.3589
0.537	15.3482
0.536	15.3771
0.535	15.3791
0.534	15.2072
0.533	15.2467
0.532	15.3878
0.531	15.2834
0.53	15.2437
0.529	15.1473
0.528	15.2294
0.527	15.2327
0.526	15.2041
0.525	15.0231
0.524	15.0711
0.523	14.9973
0.522	14.9973
0.521	15.0112
0.52	14.8421
0.519	14.9973
0.518	14.9402
0.517	14.9872
0.516	14.8438
0.515	14.7763
0.514	14.7228
0.513	14.7897
0.512	14.5648
0.511	14.4164
0.51	14.4816
0.509	14.5467
0.508	14.4544
0.507	14.388
0.506	14.4211
0.505	14.3683
0.504	14.4259
0.503	14.3741
0.502	14.3741
0.501	14.2107
0.5	14.2886
0.499	14.3412
0.498	14.2171
0.497	14.192
0.496	14.1836
0.495	14.1124
0.494	13.9893
0.493	13.9617
0.492	14.0505
0.491	14.0824
0.49	14.032
0.489	14.0106
0.488	13.9861
0.487	13.8786
0.486	13.9508
0.485	13.9108
0.484	13.9471
0.483	13.7943
0.482	13.7824
0.481	13.7352
0.48	13.7022
0.479	13.6867
0.478	13.7854
0.477	13.7334
0.476	13.6723
0.475	13.5602
0.474	13.6472
0.473	13.7009
0.472	13.4319
0.471	13.5973
0.47	13.5457
0.469	13.5568
0.468	13.4981
0.467	13.5597
0.466	13.5493
0.465	13.4656
0.464	13.3823
0.463	13.4142
0.462	13.4545
0.461	13.3322
0.46	13.3832
0.459	13.3509
0.458	13.24
0.457	13.3675
0.456	13.3768
0.455	13.1896
0.454	12.9693
0.453	13.2906
0.452	13.0928
0.451	13.067
0.45	13.167
0.449	13.3375
0.448	13.0681
0.447	13.1213
0.446	13.0596
0.445	13.0782
0.444	12.9451
0.443	12.843
0.442	12.8729
0.441	13.0836
0.44	12.9565
0.439	12.766
0.438	12.7918
0.437	12.7395
0.436	12.6291
0.435	12.5999
0.434	12.5708
0.433	12.4121
0.432	12.2724
0.431	12.3134
0.43	12.3419
0.429	12.2045
0.428	12.1832
0.427	12.2244
0.426	12.1219
0.425	11.9961
0.424	12.0508
0.423	11.897
0.422	11.8331
0.421	11.7979
0.42	11.6841
0.419	11.5123
0.418	11.5951
0.417	11.5839
0.416	11.7193
0.415	11.6369
0.414	11.6505
0.413	11.4528
0.412	11.4989
0.411	11.5801
0.41	11.3049
0.409	11.3618
0.408	11.3905
0.407	11.2593
0.406	11.2548
0.405	10.9918
0.404	11.1222
0.403	10.9655
0.402	11.0222
0.401	10.9892
0.4	10.933
