Name: Anthophyllite Mica Schist 
Type:  Rocks
Class:  Metamorphic 
Subclass: Schist 
Particle Size:  0-75 Micrometer
Sample No.:   schist8.doc
Owner:  JHU
Wavelength Range:  All
Origin:  Sample No. 396, The Hunt and Salisbury Collection at the U.S. 
Geological Survey, Denver, Co.
Description: This is a very coarse-grained rock consisting of acicular anthophyllite 
crystals and biotite, the latter containing many haloes from abundant zircon 
inclusions.  The modes gave 52.1% biotite and 47.9% anthophyllite.



Measurement:  Directional (10 Degree) Hemispherical Reflectance
First Column:  X
Second Column:  Y  
X Units:  Wavelength (micrometers)
Y Units:  Reflectance (percent)
First X Value: 14.9831	
Last X Value:  0.4
Number of X Values: 2868
Additional Information:  None

14.983	1.3179
14.940	1.2565
14.897	1.1971
14.854	1.1595
14.812	1.1545
14.770	1.1815
14.728	1.2312
14.686	1.2899
14.645	1.3454
14.603	1.3873
14.562	1.4109
14.521	1.4154
14.481	1.4031
14.441	1.3790
14.400	1.3489
14.361	1.3198
14.321	1.2980
14.281	1.2878
14.242	1.2902
14.203	1.3027
14.164	1.3207
14.126	1.3380
14.087	1.3501
14.049	1.3553
14.011	1.3548
13.973	1.3529
13.936	1.3555
13.899	1.3667
13.861	1.3892
13.824	1.4211
13.788	1.4583
13.751	1.4941
13.715	1.5225
13.679	1.5398
13.643	1.5462
13.607	1.5457
13.571	1.5445
13.536	1.5488
13.500	1.5618
13.465	1.5845
13.430	1.6134
13.396	1.6442
13.361	1.6724
13.327	1.6947
13.293	1.7117
13.259	1.7264
13.225	1.7430
13.191	1.7657
13.158	1.7974
13.124	1.8386
13.091	1.8867
13.058	1.9367
13.026	1.9833
12.993	2.0215
12.960	2.0473
12.928	2.0596
12.896	2.0594
12.864	2.0504
12.832	2.0369
12.800	2.0243
12.769	2.0179
12.737	2.0217
12.706	2.0390
12.675	2.0707
12.644	2.1171
12.614	2.1759
12.583	2.2443
12.552	2.3184
12.522	2.3947
12.492	2.4705
12.462	2.5446
12.432	2.6178
12.402	2.6926
12.373	2.7731
12.343	2.8641
12.314	2.9685
12.285	3.0883
12.256	3.2231
12.227	3.3692
12.198	3.5205
12.169	3.6702
12.141	3.8106
12.113	3.9354
12.084	4.0403
12.056	4.1239
12.028	4.1874
12.000	4.2347
11.973	4.2710
11.945	4.3015
11.918	4.3309
11.890	4.3614
11.863	4.3936
11.836	4.4256
11.809	4.4557
11.782	4.4815
11.755	4.5021
11.729	4.5173
11.702	4.5282
11.676	4.5360
11.650	4.5414
11.624	4.5440
11.598	4.5424
11.572	4.5334
11.546	4.5154
11.520	4.4865
11.495	4.4474
11.469	4.4007
11.444	4.3496
11.419	4.2975
11.394	4.2466
11.369	4.1971
11.344	4.1476
11.319	4.0950
11.294	4.0372
11.270	3.9723
11.245	3.9006
11.221	3.8234
11.197	3.7433
11.173	3.6631
11.149	3.5854
11.125	3.5127
11.101	3.4457
11.077	3.3850
11.054	3.3308
11.030	3.2827
11.007	3.2418
10.983	3.2089
10.960	3.1856
10.937	3.1738
10.914	3.1733
10.891	3.1833
10.868	3.2013
10.846	3.2240
10.823	3.2491
10.800	3.2735
10.778	3.2958
10.755	3.3149
10.733	3.3301
10.711	3.3401
10.689	3.3436
10.667	3.3403
10.645	3.3306
10.623	3.3159
10.602	3.2993
10.580	3.2844
10.558	3.2735
10.537	3.2683
10.516	3.2681
10.494	3.2718
10.473	3.2778
10.452	3.2844
10.431	3.2915
10.410	3.2998
10.389	3.3102
10.368	3.3235
10.348	3.3398
10.327	3.3583
10.306	3.3775
10.286	3.3952
10.266	3.4099
10.245	3.4210
10.225	3.4284
10.205	3.4329
10.185	3.4352
10.165	3.4374
10.145	3.4402
10.125	3.4457
10.106	3.4554
10.086	3.4710
10.066	3.4954
10.047	3.5304
10.027	3.5788
10.008	3.6415
9.9887	3.7190
9.9695	3.8094
9.9504	3.9094
9.9313	4.0138
9.9123	4.1168
9.8934	4.2125
9.8746	4.2958
9.8558	4.3638
9.8371	4.4150
9.8185	4.4505
9.7999	4.4723
9.7814	4.4832
9.7630	4.4858
9.7447	4.4827
9.7264	4.4753
9.7082	4.4656
9.6900	4.4545
9.6719	4.4438
9.6539	4.4356
9.6360	4.4315
9.6181	4.4327
9.6003	4.4398
9.5825	4.4512
9.5649	4.4640
9.5472	4.4739
9.5297	4.4761
9.5122	4.4661
9.4948	4.4420
9.4774	4.4038
9.4601	4.3553
9.4429	4.3022
9.4257	4.2511
9.4086	4.2068
9.3916	4.1706
9.3746	4.1403
9.3577	4.1102
9.3408	4.0728
9.3240	4.0223
9.3073	3.9553
9.2906	3.8726
9.2740	3.7798
9.2574	3.6837
9.2409	3.5923
9.2245	3.5108
9.2081	3.4416
9.1918	3.3834
9.1755	3.3313
9.1593	3.2804
9.1431	3.2266
9.1270	3.1681
9.1110	3.1080
9.0950	3.0511
9.0791	3.0045
9.0632	2.9730
9.0474	2.9588
9.0316	2.9607
9.0159	2.9730
9.0003	2.9893
8.9847	3.0031
8.9691	3.0102
8.9536	3.0092
8.9382	3.0024
8.9228	2.9926
8.9075	2.9844
8.8922	2.9808
8.8770	2.9844
8.8618	2.9960
8.8467	3.0144
8.8316	3.0381
8.8166	3.0634
8.8016	3.0874
8.7867	3.1068
8.7718	3.1200
8.7570	3.1262
8.7422	3.1257
8.7275	3.1198
8.7129	3.1094
8.6982	3.0938
8.6837	3.0710
8.6692	3.0381
8.6547	2.9917
8.6403	2.9289
8.6259	2.8482
8.6116	2.7501
8.5973	2.6374
8.5830	2.5145
8.5688	2.3862
8.5547	2.2576
8.5406	2.1335
8.5266	2.0181
8.5126	1.9144
8.4986	1.8244
8.4847	1.7498
8.4708	1.6906
8.4570	1.6471
8.4432	1.6172
8.4295	1.5995
8.4158	1.5912
8.4022	1.5895
8.3886	1.5928
8.3750	1.5997
8.3615	1.6106
8.3481	1.6265
8.3347	1.6487
8.3213	1.6786
8.3079	1.7169
8.2946	1.7633
8.2814	1.8164
8.2682	1.8742
8.2550	1.9348
8.2419	1.9964
8.2288	2.0584
8.2158	2.1214
8.2028	2.1863
8.1898	2.2540
8.1769	2.3255
8.1640	2.4011
8.1512	2.4795
8.1384	2.5597
8.1256	2.6407
8.1129	2.7222
8.1002	2.8046
8.0876	2.8892
8.0750	2.9765
8.0624	3.0675
8.0499	3.1622
8.0374	3.2598
8.0250	3.3595
8.0126	3.4604
8.0002	3.5627
7.9879	3.6666
7.9756	3.7729
7.9634	3.8816
7.9512	3.9927
7.9390	4.1047
7.9268	4.2167
7.9147	4.3278
7.9027	4.4375
7.8906	4.5466
7.8786	4.6567
7.8667	4.7690
7.8548	4.8843
7.8429	5.0034
7.8310	5.1256
7.8192	5.2500
7.8075	5.3748
7.7957	5.4991
7.7840	5.6222
7.7723	5.7437
7.7607	5.8633
7.7491	5.9815
7.7375	6.0982
7.7260	6.2148
7.7145	6.3313
7.7031	6.4487
7.6916	6.5674
7.6802	6.6872
7.6689	6.8073
7.6575	6.9271
7.6462	7.0450
7.6350	7.1608
7.6238	7.2740
7.6126	7.3853
7.6014	7.4962
7.5903	7.6077
7.5792	7.7209
7.5681	7.8367
7.5571	7.9542
7.5461	8.0721
7.5351	8.1893
7.5242	8.3042
7.5133	8.4167
7.5024	8.5273
7.4916	8.6374
7.4807	8.7489
7.4700	8.8631
7.4592	8.9805
7.4485	9.1008
7.4378	9.2230
7.4272	9.3452
7.4165	9.4660
7.4059	9.5849
7.3954	9.7021
7.3848	9.8184
7.3743	9.9354
7.3639	10.054
7.3534	10.177
7.3430	10.303
7.3326	10.434
7.3223	10.568
7.3119	10.705
7.3016	10.843
7.2914	10.980
7.2811	11.117
7.2709	11.252
7.2607	11.385
7.2506	11.516
7.2404	11.644
7.2303	11.771
7.2203	11.895
7.2102	12.017
7.2002	12.137
7.1902	12.256
7.1803	12.372
7.1703	12.486
7.1604	12.599
7.1506	12.712
7.1407	12.826
7.1309	12.941
7.1211	13.057
7.1113	13.173
7.1016	13.287
7.0919	13.398
7.0822	13.508
7.0725	13.619
7.0629	13.735
7.0533	13.861
7.0437	13.998
7.0341	14.147
7.0246	14.304
7.0151	14.466
7.0056	14.629
6.9962	14.792
6.9867	14.957
6.9773	15.125
6.9679	15.300
6.9586	15.484
6.9493	15.676
6.9400	15.872
6.9307	16.067
6.9214	16.256
6.9122	16.436
6.9030	16.606
6.8938	16.768
6.8847	16.930
6.8755	17.095
6.8664	17.269
6.8573	17.453
6.8483	17.644
6.8393	17.837
6.8302	18.027
6.8213	18.210
6.8123	18.385
6.8034	18.555
6.7944	18.723
6.7855	18.892
6.7767	19.063
6.7678	19.232
6.7590	19.396
6.7502	19.551
6.7414	19.693
6.7327	19.825
6.7239	19.949
6.7152	20.067
6.7065	20.183
6.6979	20.295
6.6892	20.399
6.6806	20.491
6.6720	20.568
6.6634	20.632
6.6549	20.687
6.6464	20.743
6.6378	20.801
6.6294	20.866
6.6209	20.931
6.6124	20.990
6.6040	21.036
6.5956	21.066
6.5872	21.083
6.5789	21.096
6.5705	21.113
6.5622	21.138
6.5539	21.169
6.5456	21.195
6.5374	21.207
6.5292	21.196
6.5209	21.160
6.5128	21.107
6.5046	21.050
6.4964	21.003
6.4883	20.973
6.4802	20.959
6.4721	20.948
6.4640	20.925
6.4560	20.873
6.4480	20.785
6.4399	20.664
6.4320	20.526
6.4240	20.388
6.4160	20.266
6.4081	20.166
6.4002	20.081
6.3923	19.999
6.3844	19.903
6.3766	19.781
6.3687	19.630
6.3609	19.456
6.3531	19.272
6.3454	19.086
6.3376	18.908
6.3299	18.735
6.3221	18.563
6.3144	18.383
6.3068	18.190
6.2991	17.977
6.2914	17.747
6.2838	17.502
6.2762	17.243
6.2686	16.975
6.2611	16.698
6.2535	16.412
6.2460	16.117
6.2385	15.815
6.2310	15.508
6.2235	15.200
6.2160	14.896
6.2086	14.604
6.2011	14.328
6.1937	14.076
6.1863	13.855
6.1790	13.666
6.1716	13.511
6.1643	13.386
6.1570	13.285
6.1496	13.201
6.1424	13.130
6.1351	13.070
6.1278	13.020
6.1206	12.983
6.1134	12.961
6.1062	12.954
6.0990	12.961
6.0918	12.980
6.0847	13.007
6.0776	13.043
6.0704	13.094
6.0633	13.166
6.0563	13.266
6.0492	13.399
6.0421	13.564
6.0351	13.755
6.0281	13.963
6.0211	14.178
6.0141	14.392
6.0071	14.602
6.0002	14.808
5.9932	15.012
5.9863	15.216
5.9794	15.420
5.9725	15.622
5.9657	15.824
5.9588	16.024
5.9520	16.224
5.9451	16.427
5.9383	16.632
5.9315	16.836
5.9247	17.033
5.9180	17.216
5.9112	17.382
5.9045	17.531
5.8978	17.667
5.8911	17.801
5.8844	17.939
5.8777	18.084
5.8711	18.233
5.8644	18.374
5.8578	18.499
5.8512	18.599
5.8446	18.673
5.8380	18.727
5.8314	18.772
5.8249	18.818
5.8184	18.871
5.8118	18.931
5.8053	18.990
5.7988	19.039
5.7923	19.071
5.7859	19.083
5.7794	19.080
5.7730	19.070
5.7666	19.065
5.7602	19.074
5.7538	19.101
5.7474	19.143
5.7410	19.196
5.7347	19.253
5.7283	19.309
5.7220	19.364
5.7157	19.417
5.7094	19.470
5.7031	19.526
5.6969	19.583
5.6906	19.641
5.6844	19.695
5.6782	19.743
5.6719	19.783
5.6657	19.816
5.6596	19.845
5.6534	19.873
5.6472	19.906
5.6411	19.944
5.6349	19.990
5.6288	20.039
5.6227	20.088
5.6166	20.132
5.6106	20.167
5.6045	20.193
5.5984	20.213
5.5924	20.231
5.5864	20.255
5.5804	20.288
5.5744	20.337
5.5684	20.401
5.5624	20.482
5.5564	20.576
5.5505	20.682
5.5445	20.798
5.5386	20.923
5.5327	21.055
5.5268	21.193
5.5209	21.334
5.5151	21.475
5.5092	21.613
5.5033	21.746
5.4975	21.872
5.4917	21.994
5.4859	22.115
5.4801	22.239
5.4743	22.370
5.4685	22.511
5.4628	22.660
5.4570	22.813
5.4513	22.963
5.4455	23.104
5.4398	23.231
5.4341	23.345
5.4284	23.446
5.4228	23.538
5.4171	23.625
5.4114	23.709
5.4058	23.791
5.4002	23.871
5.3945	23.948
5.3889	24.024
5.3833	24.100
5.3778	24.178
5.3722	24.261
5.3666	24.353
5.3611	24.453
5.3555	24.561
5.3500	24.675
5.3445	24.790
5.3390	24.901
5.3335	25.003
5.3280	25.091
5.3225	25.163
5.3171	25.221
5.3116	25.267
5.3062	25.306
5.3008	25.344
5.2954	25.386
5.2900	25.437
5.2846	25.499
5.2792	25.573
5.2738	25.659
5.2684	25.755
5.2631	25.861
5.2578	25.979
5.2524	26.108
5.2471	26.252
5.2418	26.411
5.2365	26.586
5.2312	26.775
5.2260	26.979
5.2207	27.194
5.2154	27.417
5.2102	27.644
5.2050	27.873
5.1998	28.099
5.1945	28.319
5.1893	28.529
5.1842	28.729
5.1790	28.916
5.1738	29.091
5.1686	29.256
5.1635	29.412
5.1584	29.562
5.1532	29.709
5.1481	29.854
5.1430	29.997
5.1379	30.138
5.1328	30.278
5.1277	30.414
5.1227	30.545
5.1176	30.670
5.1126	30.787
5.1075	30.897
5.1025	31.000
5.0975	31.097
5.0925	31.191
5.0875	31.283
5.0825	31.373
5.0775	31.461
5.0726	31.547
5.0676	31.630
5.0627	31.709
5.0577	31.786
5.0528	31.861
5.0479	31.932
5.0430	32.001
5.0380	32.066
5.0332	32.127
5.0283	32.185
5.0234	32.237
5.0185	32.287
5.0137	32.334
5.0088	32.382
5.0040	32.430
4.9992	32.482
4.9944	32.537
4.9896	32.597
4.9848	32.661
4.9800	32.730
4.9752	32.802
4.9704	32.876
4.9657	32.953
4.9609	33.030
4.9562	33.106
4.9514	33.182
4.9467	33.258
4.9420	33.333
4.9373	33.410
4.9326	33.490
4.9279	33.573
4.9232	33.660
4.9186	33.752
4.9139	33.847
4.9092	33.945
4.9046	34.045
4.9000	34.146
4.8953	34.248
4.8907	34.352
4.8861	34.456
4.8815	34.560
4.8769	34.663
4.8723	34.765
4.8678	34.866
4.8632	34.965
4.8586	35.065
4.8541	35.167
4.8495	35.272
4.8450	35.380
4.8405	35.492
4.8360	35.606
4.8315	35.720
4.8270	35.832
4.8225	35.942
4.8180	36.049
4.8135	36.155
4.8090	36.262
4.8046	36.371
4.8001	36.485
4.7957	36.605
4.7913	36.731
4.7868	36.861
4.7824	36.994
4.7780	37.130
4.7736	37.264
4.7692	37.398
4.7648	37.529
4.7605	37.658
4.7561	37.786
4.7517	37.913
4.7474	38.042
4.7431	38.173
4.7387	38.308
4.7344	38.446
4.7301	38.586
4.7258	38.727
4.7215	38.866
4.7172	39.002
4.7129	39.134
4.7086	39.262
4.7043	39.388
4.7000	39.511
4.6958	39.634
4.6915	39.757
4.6873	39.882
4.6831	40.009
4.6788	40.137
4.6746	40.265
4.6704	40.394
4.6662	40.522
4.6620	40.649
4.6578	40.776
4.6536	40.903
4.6495	41.029
4.6453	41.156
4.6411	41.281
4.6370	41.405
4.6328	41.525
4.6287	41.643
4.6246	41.759
4.6205	41.875
4.6163	41.990
4.6122	42.107
4.6081	42.224
4.6040	42.341
4.6000	42.456
4.5959	42.567
4.5918	42.674
4.5877	42.774
4.5837	42.869
4.5796	42.958
4.5756	43.044
4.5716	43.126
4.5675	43.207
4.5635	43.287
4.5595	43.366
4.5555	43.443
4.5515	43.519
4.5475	43.590
4.5435	43.656
4.5395	43.717
4.5356	43.773
4.5316	43.827
4.5276	43.879
4.5237	43.931
4.5197	43.983
4.5158	44.034
4.5119	44.084
4.5080	44.133
4.5040	44.180
4.5001	44.224
4.4962	44.266
4.4923	44.305
4.4884	44.342
4.4846	44.376
4.4807	44.409
4.4768	44.440
4.4730	44.472
4.4691	44.505
4.4652	44.540
4.4614	44.578
4.4576	44.618
4.4537	44.659
4.4499	44.698
4.4461	44.735
4.4423	44.767
4.4385	44.794
4.4347	44.818
4.4309	44.839
4.4271	44.858
4.4233	44.878
4.4196	44.899
4.4158	44.922
4.4120	44.945
4.4083	44.967
4.4045	44.989
4.4008	45.009
4.3971	45.028
4.3934	45.046
4.3896	45.066
4.3859	45.085
4.3822	45.105
4.3785	45.124
4.3748	45.141
4.3711	45.156
4.3674	45.168
4.3638	45.177
4.3601	45.185
4.3564	45.193
4.3528	45.202
4.3491	45.212
4.3455	45.223
4.3418	45.237
4.3382	45.250
4.3346	45.264
4.3310	45.276
4.3273	45.286
4.3237	45.294
4.3201	45.299
4.3165	45.303
4.3129	45.307
4.3094	45.312
4.3058	45.318
4.3022	45.326
4.2986	45.337
4.2951	45.350
4.2915	45.363
4.2880	45.377
4.2844	45.389
4.2809	45.401
4.2774	45.411
4.2738	45.420
4.2703	45.428
4.2668	45.436
4.2633	45.443
4.2598	45.451
4.2563	45.460
4.2528	45.468
4.2493	45.477
4.2458	45.486
4.2424	45.495
4.2389	45.503
4.2354	45.511
4.2320	45.518
4.2285	45.525
4.2251	45.532
4.2216	45.540
4.2182	45.550
4.2148	45.562
4.2113	45.574
4.2079	45.586
4.2045	45.598
4.2011	45.610
4.1977	45.620
4.1943	45.629
4.1909	45.638
4.1875	45.645
4.1841	45.652
4.1808	45.659
4.1774	45.666
4.1740	45.674
4.1707	45.682
4.1673	45.692
4.1640	45.702
4.1606	45.712
4.1573	45.720
4.1540	45.727
4.1506	45.733
4.1473	45.737
4.1440	45.741
4.1407	45.746
4.1374	45.750
4.1341	45.754
4.1308	45.758
4.1275	45.761
4.1242	45.764
4.1209	45.768
4.1177	45.772
4.1144	45.778
4.1111	45.785
4.1079	45.793
4.1046	45.800
4.1014	45.806
4.0981	45.812
4.0949	45.818
4.0917	45.826
4.0884	45.835
4.0852	45.845
4.0820	45.856
4.0788	45.866
4.0756	45.874
4.0724	45.879
4.0692	45.883
4.0660	45.885
4.0628	45.889
4.0596	45.895
4.0565	45.902
4.0533	45.910
4.0501	45.918
4.0470	45.924
4.0438	45.929
4.0406	45.933
4.0375	45.935
4.0344	45.937
4.0312	45.940
4.0281	45.943
4.0250	45.947
4.0218	45.952
4.0187	45.957
4.0156	45.962
4.0125	45.968
4.0094	45.975
4.0063	45.982
4.0032	45.991
4.0001	45.998
3.9970	46.006
3.9940	46.011
3.9909	46.015
3.9878	46.018
3.9847	46.020
3.9817	46.023
3.9786	46.026
3.9756	46.030
3.9725	46.034
3.9695	46.037
3.9665	46.039
3.9634	46.040
3.9604	46.041
3.9574	46.042
3.9544	46.042
3.9513	46.043
3.9483	46.043
3.9453	46.042
3.9423	46.039
3.9393	46.035
3.9363	46.028
3.9333	46.021
3.9304	46.015
3.9274	46.011
3.9244	46.009
3.9214	46.009
3.9185	46.009
3.9155	46.009
3.9126	46.008
3.9096	46.005
3.9067	46.001
3.9037	45.997
3.9008	45.993
3.8979	45.988
3.8949	45.983
3.8920	45.976
3.8891	45.965
3.8862	45.951
3.8833	45.934
3.8804	45.916
3.8775	45.899
3.8746	45.884
3.8717	45.873
3.8688	45.865
3.8659	45.858
3.8630	45.852
3.8601	45.843
3.8573	45.832
3.8544	45.817
3.8515	45.798
3.8487	45.778
3.8458	45.756
3.8430	45.736
3.8401	45.716
3.8373	45.698
3.8344	45.680
3.8316	45.661
3.8288	45.640
3.8259	45.616
3.8231	45.591
3.8203	45.566
3.8175	45.541
3.8147	45.518
3.8119	45.497
3.8091	45.476
3.8063	45.453
3.8035	45.427
3.8007	45.396
3.7979	45.361
3.7951	45.324
3.7924	45.286
3.7896	45.250
3.7868	45.219
3.7841	45.191
3.7813	45.168
3.7785	45.146
3.7758	45.125
3.7730	45.101
3.7703	45.075
3.7676	45.045
3.7648	45.014
3.7621	44.981
3.7594	44.948
3.7566	44.916
3.7539	44.883
3.7512	44.850
3.7485	44.818
3.7458	44.784
3.7431	44.751
3.7404	44.717
3.7377	44.685
3.7350	44.653
3.7323	44.620
3.7296	44.587
3.7269	44.554
3.7242	44.519
3.7216	44.483
3.7189	44.446
3.7162	44.408
3.7136	44.368
3.7109	44.326
3.7083	44.284
3.7056	44.240
3.7030	44.197
3.7003	44.155
3.6977	44.116
3.6950	44.081
3.6924	44.049
3.6898	44.018
3.6872	43.987
3.6845	43.955
3.6819	43.920
3.6793	43.883
3.6767	43.843
3.6741	43.802
3.6715	43.759
3.6689	43.713
3.6663	43.666
3.6637	43.616
3.6611	43.564
3.6585	43.513
3.6560	43.463
3.6534	43.415
3.6508	43.371
3.6482	43.328
3.6457	43.285
3.6431	43.242
3.6406	43.196
3.6380	43.147
3.6355	43.096
3.6329	43.042
3.6304	42.988
3.6278	42.933
3.6253	42.879
3.6227	42.825
3.6202	42.772
3.6177	42.718
3.6152	42.664
3.6127	42.608
3.6101	42.551
3.6076	42.492
3.6051	42.434
3.6026	42.375
3.6001	42.315
3.5976	42.256
3.5951	42.195
3.5926	42.132
3.5901	42.065
3.5876	41.995
3.5852	41.922
3.5827	41.846
3.5802	41.771
3.5777	41.697
3.5753	41.625
3.5728	41.554
3.5704	41.486
3.5679	41.417
3.5654	41.349
3.5630	41.281
3.5605	41.212
3.5581	41.144
3.5557	41.076
3.5532	41.009
3.5508	40.942
3.5484	40.874
3.5459	40.805
3.5435	40.733
3.5411	40.659
3.5387	40.582
3.5363	40.503
3.5338	40.421
3.5314	40.337
3.5290	40.251
3.5266	40.162
3.5242	40.069
3.5218	39.972
3.5195	39.871
3.5171	39.766
3.5147	39.659
3.5123	39.552
3.5099	39.448
3.5075	39.352
3.5052	39.268
3.5028	39.197
3.5004	39.144
3.4981	39.106
3.4957	39.082
3.4934	39.068
3.4910	39.060
3.4887	39.051
3.4863	39.038
3.4840	39.019
3.4816	38.995
3.4793	38.966
3.4770	38.932
3.4746	38.895
3.4723	38.852
3.4700	38.801
3.4677	38.740
3.4653	38.668
3.4630	38.585
3.4607	38.493
3.4584	38.395
3.4561	38.295
3.4538	38.195
3.4515	38.098
3.4492	38.004
3.4469	37.917
3.4446	37.836
3.4423	37.763
3.4400	37.696
3.4378	37.633
3.4355	37.570
3.4332	37.502
3.4309	37.425
3.4287	37.334
3.4264	37.229
3.4241	37.114
3.4219	36.994
3.4196	36.876
3.4174	36.768
3.4151	36.675
3.4129	36.599
3.4106	36.540
3.4084	36.493
3.4061	36.452
3.4039	36.412
3.4017	36.365
3.3994	36.308
3.3972	36.237
3.3950	36.153
3.3928	36.057
3.3906	35.953
3.3883	35.847
3.3861	35.741
3.3839	35.641
3.3817	35.548
3.3795	35.464
3.3773	35.387
3.3751	35.317
3.3729	35.249
3.3707	35.182
3.3685	35.114
3.3663	35.043
3.3641	34.967
3.3620	34.888
3.3598	34.807
3.3576	34.725
3.3554	34.646
3.3533	34.570
3.3511	34.500
3.3489	34.434
3.3468	34.374
3.3446	34.318
3.3425	34.264
3.3403	34.211
3.3382	34.157
3.3360	34.100
3.3339	34.040
3.3317	33.977
3.3296	33.910
3.3274	33.840
3.3253	33.768
3.3232	33.693
3.3210	33.617
3.3189	33.537
3.3168	33.454
3.3147	33.369
3.3126	33.282
3.3104	33.194
3.3083	33.107
3.3062	33.019
3.3041	32.931
3.3020	32.841
3.2999	32.750
3.2978	32.658
3.2957	32.565
3.2936	32.474
3.2915	32.385
3.2894	32.296
3.2874	32.206
3.2853	32.113
3.2832	32.018
3.2811	31.920
3.2790	31.822
3.2770	31.727
3.2749	31.635
3.2728	31.547
3.2708	31.462
3.2687	31.377
3.2666	31.291
3.2646	31.202
3.2625	31.111
3.2605	31.016
3.2584	30.919
3.2564	30.822
3.2543	30.724
3.2523	30.626
3.2503	30.528
3.2482	30.429
3.2462	30.331
3.2442	30.233
3.2421	30.134
3.2401	30.034
3.2381	29.935
3.2361	29.835
3.2340	29.735
3.2320	29.636
3.2300	29.537
3.2280	29.440
3.2260	29.344
3.2240	29.248
3.2220	29.152
3.2200	29.055
3.2180	28.958
3.2160	28.859
3.2140	28.760
3.2120	28.660
3.2100	28.559
3.2080	28.458
3.2060	28.357
3.2040	28.256
3.2021	28.157
3.2001	28.059
3.1981	27.963
3.1961	27.867
3.1942	27.770
3.1922	27.669
3.1902	27.564
3.1883	27.455
3.1863	27.343
3.1844	27.231
3.1824	27.121
3.1805	27.014
3.1785	26.911
3.1766	26.813
3.1746	26.717
3.1727	26.622
3.1707	26.527
3.1688	26.429
3.1669	26.329
3.1649	26.226
3.1630	26.120
3.1611	26.014
3.1591	25.908
3.1572	25.803
3.1553	25.699
3.1534	25.597
3.1515	25.495
3.1495	25.393
3.1476	25.288
3.1457	25.182
3.1438	25.075
3.1419	24.969
3.1400	24.866
3.1381	24.767
3.1362	24.674
3.1343	24.585
3.1324	24.499
3.1305	24.412
3.1286	24.321
3.1268	24.226
3.1249	24.125
3.1230	24.022
3.1211	23.919
3.1192	23.820
3.1174	23.729
3.1155	23.645
3.1136	23.569
3.1117	23.496
3.1099	23.423
3.1080	23.347
3.1061	23.266
3.1043	23.181
3.1024	23.092
3.1006	23.003
3.0987	22.915
3.0969	22.831
3.0950	22.751
3.0932	22.676
3.0913	22.606
3.0895	22.541
3.0876	22.481
3.0858	22.426
3.0840	22.373
3.0821	22.320
3.0803	22.264
3.0785	22.202
3.0766	22.134
3.0748	22.061
3.0730	21.985
3.0712	21.910
3.0694	21.838
3.0675	21.769
3.0657	21.703
3.0639	21.639
3.0621	21.574
3.0603	21.508
3.0585	21.440
3.0567	21.371
3.0549	21.302
3.0531	21.235
3.0513	21.170
3.0495	21.108
3.0477	21.047
3.0459	20.985
3.0441	20.922
3.0423	20.856
3.0406	20.787
3.0388	20.718
3.0370	20.648
3.0352	20.580
3.0334	20.514
3.0317	20.449
3.0299	20.384
3.0281	20.317
3.0264	20.247
3.0246	20.177
3.0228	20.105
3.0211	20.035
3.0193	19.966
3.0176	19.899
3.0158	19.833
3.0140	19.766
3.0123	19.697
3.0105	19.626
3.0088	19.551
3.0070	19.473
3.0053	19.394
3.0036	19.314
3.0018	19.234
3.0001	19.156
2.9984	19.078
2.9966	19.003
2.9949	18.927
2.9932	18.851
2.9914	18.775
2.9897	18.697
2.9880	18.619
2.9863	18.542
2.9845	18.466
2.9828	18.392
2.9811	18.319
2.9794	18.246
2.9777	18.170
2.9760	18.090
2.9743	18.007
2.9726	17.921
2.9709	17.835
2.9692	17.750
2.9675	17.668
2.9658	17.589
2.9641	17.514
2.9624	17.443
2.9607	17.374
2.9590	17.305
2.9573	17.238
2.9556	17.170
2.9539	17.103
2.9523	17.037
2.9506	16.973
2.9489	16.913
2.9472	16.857
2.9455	16.802
2.9439	16.747
2.9422	16.690
2.9405	16.630
2.9389	16.570
2.9372	16.511
2.9355	16.456
2.9339	16.410
2.9322	16.371
2.9306	16.338
2.9289	16.308
2.9272	16.276
2.9256	16.241
2.9239	16.201
2.9223	16.160
2.9207	16.121
2.9190	16.087
2.9174	16.061
2.9157	16.044
2.9141	16.034
2.9124	16.029
2.9108	16.028
2.9092	16.028
2.9075	16.029
2.9059	16.031
2.9043	16.034
2.9027	16.039
2.9010	16.046
2.8994	16.054
2.8978	16.063
2.8962	16.073
2.8946	16.082
2.8929	16.091
2.8913	16.099
2.8897	16.105
2.8881	16.110
2.8865	16.113
2.8849	16.115
2.8833	16.115
2.8817	16.115
2.8801	16.114
2.8785	16.115
2.8769	16.116
2.8753	16.120
2.8737	16.125
2.8721	16.131
2.8705	16.136
2.8689	16.140
2.8673	16.139
2.8658	16.132
2.8642	16.119
2.8626	16.097
2.8610	16.068
2.8594	16.032
2.8579	15.989
2.8563	15.940
2.8547	15.887
2.8531	15.832
2.8516	15.778
2.8500	15.729
2.8484	15.684
2.8469	15.644
2.8453	15.608
2.8437	15.570
2.8422	15.528
2.8406	15.479
2.8391	15.421
2.8375	15.355
2.8360	15.283
2.8344	15.205
2.8329	15.123
2.8313	15.040
2.8298	14.955
2.8282	14.872
2.8267	14.789
2.8252	14.708
2.8236	14.629
2.8221	14.550
2.8205	14.472
2.8190	14.393
2.8175	14.311
2.8159	14.227
2.8144	14.139
2.8129	14.048
2.8114	13.956
2.8098	13.863
2.8083	13.774
2.8068	13.690
2.8053	13.613
2.8038	13.545
2.8022	13.484
2.8007	13.428
2.7992	13.373
2.7977	13.315
2.7962	13.250
2.7947	13.176
2.7932	13.093
2.7917	13.001
2.7902	12.903
2.7887	12.803
2.7872	12.706
2.7857	12.615
2.7842	12.535
2.7827	12.466
2.7812	12.409
2.7797	12.361
2.7782	12.317
2.7767	12.271
2.7752	12.219
2.7738	12.153
2.7723	12.072
2.7708	11.974
2.7693	11.861
2.7678	11.737
2.7664	11.607
2.7649	11.477
2.7634	11.352
2.7619	11.235
2.7605	11.128
2.7590	11.029
2.7575	10.938
2.7561	10.856
2.7546	10.787
2.7531	10.736
2.7517	10.701
2.7502	10.678
2.7488	10.648
2.7473	10.589
2.7458	10.478
2.7444	10.304
2.7429	10.072
2.7415	9.8106
2.7400	9.5560
2.7386	9.3433
2.7371	9.1889
2.7357	9.0847
2.7343	9.0026
2.7328	8.9104
2.7314	8.7937
2.7299	8.6696
2.7285	8.5891
2.7271	8.6229
2.7256	8.8373
2.7242	9.2694
2.7228	9.9122
2.7213	10.714
2.7199	11.596
2.7185	12.471
2.7171	13.268
2.7156	13.944
2.7142	14.487
2.7128	14.910
2.7114	15.236
2.7100	15.495
2.7085	15.708
2.7071	15.892
2.7057	16.055
2.7043	16.205
2.7029	16.350
2.7015	16.500
2.7001	16.671
2.6987	16.884
2.6973	17.166
2.6959	17.549
2.6945	18.073
2.6931	18.782
2.6917	19.722
2.6903	20.932
2.6889	22.437
2.6875	24.230
2.6861	26.273
2.6847	28.484
2.6833	30.754
2.6819	32.953
2.6805	34.960
2.6791	36.675
2.6778	38.040
2.6764	39.044
2.6750	39.718
2.6736	40.122
2.6722	40.338
2.6709	40.445
2.6695	40.511
2.6681	40.585
2.6667	40.692
2.6654	40.835
2.6640	41.001
2.6626	41.168
2.6613	41.314
2.6599	41.424
2.6585	41.492
2.6572	41.520
2.6558	41.521
2.6545	41.507
2.6531	41.488
2.6517	41.471
2.6504	41.458
2.6490	41.449
2.6477	41.441
2.6463	41.433
2.6450	41.428
2.6436	41.424
2.6423	41.423
2.6409	41.421
2.6396	41.415
2.6382	41.398
2.6369	41.368
2.6356	41.326
2.6342	41.277
2.6329	41.230
2.6315	41.195
2.6302	41.179
2.6289	41.182
2.6275	41.196
2.6262	41.209
2.6249	41.209
2.6236	41.188
2.6222	41.148
2.6209	41.097
2.6196	41.051
2.6183	41.022
2.6169	41.017
2.6156	41.030
2.6143	41.048
2.6130	41.053
2.6117	41.030
2.6103	40.977
2.6090	40.903
2.6077	40.823
2.6064	40.757
2.6051	40.713
2.6038	40.691
2.6025	40.674
2.6012	40.643
2.5999	40.584
2.5986	40.496
2.5973	40.393
2.5960	40.297
2.5947	40.231
2.5934	40.204
2.5921	40.213
2.5908	40.238
2.5895	40.257
2.5882	40.255
2.5869	40.227
2.5856	40.181
2.5843	40.130
2.5830	40.087
2.5817	40.056
2.5805	40.034
2.5792	40.011
2.5779	39.979
2.5766	39.936
2.5753	39.885
2.5741	39.833
2.5728	39.786
2.5715	39.748
2.5702	39.715
2.5690	39.682
2.5677	39.645
2.5664	39.601
2.5651	39.553
2.5639	39.511
2.5626	39.481
2.5613	39.468
2.5601	39.468
2.5588	39.474
2.5575	39.478
2.5563	39.471
2.5550	39.449
2.5538	39.414
2.5525	39.371
2.5513	39.326
2.5500	39.283
2.5487	39.242
2.5475	39.205
2.5462	39.170
2.5450	39.136
2.5437	39.103
2.5425	39.070
2.5413	39.037
2.5400	39.002
2.5388	38.961
2.5375	38.912
2.5363	38.856
2.5350	38.793
2.5338	38.726
2.5326	38.661
2.5313	38.600
2.5301	38.544
2.5289	38.494
2.5276	38.450
2.5264	38.409
2.5252	38.370
2.5239	38.332
2.5227	38.292
2.5215	38.250
2.5202	38.202
2.5190	38.149
2.5178	38.090
2.5166	38.027
2.5154	37.964
2.5141	37.903
2.5129	37.847
2.5117	37.798
2.5105	37.755
2.5093	37.716
2.5081	37.680
2.5068	37.643
2.5056	37.603
2.5044	37.560
2.5032	37.517
2.5020	37.474
2.5008	37.433
2.4996	37.396
2.4984	37.361
2.4972	37.326
2.4960	37.288
2.4948	37.246
2.4936	37.199
2.4924	37.148
2.4912	37.095
2.4900	37.041
2.4888	36.989
2.4876	36.939
2.4864	36.892
2.4852	36.845
2.4840	36.799
2.4828	36.750
2.4816	36.700
2.4805	36.646
2.4793	36.591
2.4781	36.536
2.4769	36.482
2.4757	36.431
2.4745	36.385
2.4734	36.345
2.4722	36.309
2.4710	36.276
2.4698	36.244
2.4686	36.213
2.4675	36.181
2.4663	36.149
2.4651	36.117
2.4640	36.086
2.4628	36.058
2.4616	36.030
2.4604	36.003
2.4593	35.974
2.4581	35.943
2.4569	35.910
2.4558	35.874
2.4546	35.838
2.4535	35.804
2.4523	35.771
2.4511	35.743
2.4500	35.718
2.4488	35.694
2.4477	35.671
2.4465	35.646
2.4454	35.621
2.4442	35.594
2.4431	35.568
2.4419	35.545
2.4408	35.526
2.4396	35.511
2.4385	35.500
2.4373	35.492
2.4362	35.485
2.4350	35.479
2.4339	35.470
2.4327	35.460
2.4316	35.447
2.4305	35.431
2.4293	35.413
2.4282	35.391
2.4270	35.365
2.4259	35.335
2.4248	35.300
2.4236	35.263
2.4225	35.225
2.4214	35.188
2.4202	35.156
2.4191	35.127
2.4180	35.101
2.4169	35.076
2.4157	35.047
2.4146	35.013
2.4135	34.972
2.4124	34.924
2.4112	34.873
2.4101	34.820
2.4090	34.768
2.4079	34.717
2.4068	34.668
2.4056	34.619
2.4045	34.568
2.4034	34.514
2.4023	34.458
2.4012	34.402
2.4001	34.347
2.3990	34.294
2.3979	34.245
2.3967	34.200
2.3956	34.158
2.3945	34.118
2.3934	34.080
2.3923	34.044
2.3912	34.011
2.3901	33.982
2.3890	33.958
2.3879	33.939
2.3868	33.929
2.3857	33.929
2.3846	33.939
2.3835	33.962
2.3824	33.999
2.3813	34.047
2.3802	34.105
2.3791	34.170
2.3781	34.237
2.3770	34.301
2.3759	34.361
2.3748	34.416
2.3737	34.465
2.3726	34.510
2.3715	34.552
2.3704	34.592
2.3694	34.630
2.3683	34.664
2.3672	34.694
2.3661	34.718
2.3650	34.737
2.3640	34.750
2.3629	34.760
2.3618	34.766
2.3607	34.768
2.3597	34.765
2.3586	34.757
2.3575	34.741
2.3564	34.720
2.3554	34.693
2.3543	34.664
2.3532	34.633
2.3522	34.601
2.3511	34.568
2.3500	34.533
2.3490	34.496
2.3479	34.458
2.3468	34.418
2.3458	34.379
2.3447	34.339
2.3436	34.298
2.3426	34.253
2.3415	34.201
2.3405	34.142
2.3394	34.077
2.3384	34.008
2.3373	33.937
2.3363	33.868
2.3352	33.800
2.3342	33.734
2.3331	33.667
2.3321	33.598
2.3310	33.526
2.3300	33.452
2.3289	33.378
2.3279	33.307
2.3268	33.243
2.3258	33.187
2.3247	33.143
2.3237	33.110
2.3226	33.087
2.3216	33.073
2.3206	33.066
2.3195	33.066
2.3185	33.069
2.3175	33.078
2.3164	33.090
2.3154	33.107
2.3144	33.131
2.3133	33.162
2.3123	33.204
2.3113	33.257
2.3102	33.321
2.3092	33.396
2.3082	33.480
2.3071	33.569
2.3061	33.659
2.3051	33.748
2.3041	33.835
2.3030	33.923
2.3020	34.012
2.3010	34.107
2.3000	34.208
2.2990	34.316
2.2979	34.427
2.2969	34.540
2.2959	34.653
2.2949	34.766
2.2939	34.881
2.2929	34.999
2.2918	35.123
2.2908	35.255
2.2898	35.395
2.2888	35.539
2.2878	35.684
2.2868	35.825
2.2858	35.955
2.2848	36.071
2.2838	36.172
2.2828	36.259
2.2818	36.335
2.2808	36.404
2.2798	36.471
2.2787	36.536
2.2777	36.601
2.2767	36.661
2.2757	36.716
2.2747	36.762
2.2738	36.799
2.2728	36.827
2.2718	36.850
2.2708	36.871
2.2698	36.894
2.2688	36.920
2.2678	36.950
2.2668	36.982
2.2658	37.013
2.2648	37.039
2.2638	37.056
2.2628	37.066
2.2618	37.067
2.2609	37.061
2.2599	37.049
2.2589	37.032
2.2579	37.009
2.2569	36.978
2.2559	36.938
2.2550	36.888
2.2540	36.832
2.2530	36.774
2.2520	36.720
2.2510	36.678
2.2501	36.657
2.2491	36.661
2.2481	36.695
2.2471	36.759
2.2462	36.852
2.2452	36.969
2.2442	37.105
2.2433	37.254
2.2423	37.410
2.2413	37.568
2.2403	37.724
2.2394	37.878
2.2384	38.027
2.2374	38.170
2.2365	38.308
2.2355	38.440
2.2345	38.565
2.2336	38.681
2.2326	38.788
2.2317	38.884
2.2307	38.970
2.2297	39.046
2.2288	39.114
2.2278	39.174
2.2269	39.230
2.2259	39.283
2.2250	39.334
2.2240	39.385
2.2231	39.436
2.2221	39.486
2.2211	39.535
2.2202	39.579
2.2192	39.618
2.2183	39.648
2.2173	39.671
2.2164	39.689
2.2155	39.706
2.2145	39.727
2.2136	39.756
2.2126	39.796
2.2117	39.844
2.2107	39.894
2.2098	39.940
2.2088	39.978
2.2079	40.005
2.2070	40.024
2.2060	40.039
2.2051	40.056
2.2041	40.078
2.2032	40.104
2.2023	40.134
2.2013	40.162
2.2004	40.187
2.1995	40.210
2.1985	40.231
2.1976	40.253
2.1967	40.279
2.1957	40.309
2.1948	40.342
2.1939	40.374
2.1930	40.403
2.1920	40.429
2.1911	40.453
2.1902	40.479
2.1893	40.508
2.1883	40.544
2.1874	40.585
2.1865	40.631
2.1856	40.677
2.1846	40.722
2.1837	40.763
2.1828	40.797
2.1819	40.826
2.1810	40.849
2.1800	40.870
2.1791	40.891
2.1782	40.916
2.1773	40.946
2.1764	40.981
2.1755	41.020
2.1746	41.057
2.1736	41.089
2.1727	41.112
2.1718	41.125
2.1709	41.131
2.1700	41.134
2.1691	41.140
2.1682	41.153
2.1673	41.175
2.1664	41.207
2.1655	41.245
2.1646	41.288
2.1637	41.330
2.1628	41.369
2.1619	41.404
2.1610	41.433
2.1601	41.457
2.1592	41.475
2.1583	41.487
2.1574	41.495
2.1565	41.502
2.1556	41.512
2.1547	41.527
2.1538	41.551
2.1529	41.584
2.1520	41.622
2.1511	41.661
2.1502	41.696
2.1493	41.723
2.1484	41.743
2.1475	41.758
2.1466	41.774
2.1458	41.794
2.1449	41.823
2.1440	41.860
2.1431	41.902
2.1422	41.945
2.1413	41.985
2.1404	42.018
2.1396	42.043
2.1387	42.062
2.1378	42.078
2.1369	42.093
2.1360	42.110
2.1352	42.131
2.1343	42.154
2.1334	42.179
2.1325	42.205
2.1316	42.231
2.1308	42.259
2.1299	42.288
2.1290	42.318
2.1281	42.348
2.1273	42.374
2.1264	42.397
2.1255	42.415
2.1247	42.428
2.1238	42.438
2.1229	42.448
2.1220	42.460
2.1212	42.478
2.1203	42.502
2.1194	42.535
2.1186	42.576
2.1177	42.623
2.1168	42.673
2.1160	42.723
2.1151	42.770
2.1143	42.811
2.1134	42.849
2.1125	42.885
2.1117	42.921
2.1108	42.959
2.1100	42.995
2.1091	43.026
2.1082	43.048
2.1074	43.060
2.1065	43.065
2.1057	43.068
2.1048	43.077
2.1040	43.096
2.1031	43.126
2.1023	43.165
2.1014	43.205
2.1005	43.239
2.0997	43.266
2.0988	43.284
2.0980	43.298
2.0971	43.314
2.0963	43.336
2.0955	43.366
2.0946	43.404
2.0938	43.447
2.0929	43.493
2.0921	43.539
2.0912	43.585
2.0904	43.628
2.0895	43.667
2.0887	43.699
2.0879	43.721
2.0870	43.731
2.0862	43.730
2.0853	43.721
2.0845	43.711
2.0837	43.703
2.0828	43.706
2.0820	43.735
2.0812	43.772
2.0803	43.862
2.0795	43.995
2.0760	43.995
2.0720	44.184
2.0680	44.337
2.0640	44.526
2.0600	44.583
2.0560	44.905
2.0520	44.962
2.0480	45.038
2.0440	45.189
2.0400	45.245
2.0360	45.508
2.0320	45.319
2.0280	45.300
2.0240	45.431
2.0200	45.506
2.0160	45.562
2.0120	45.449
2.0080	45.467
2.0040	45.671
2.0000	45.633
1.9960	45.613
1.9920	45.651
1.9880	45.853
1.9840	45.853
1.9800	45.870
1.9760	45.942
1.9720	45.812
1.9680	45.775
1.9640	45.516
1.9600	45.720
1.9560	45.850
1.9520	45.812
1.9480	45.867
1.9440	45.867
1.9400	45.812
1.9360	45.870
1.9320	46.014
1.9280	45.839
1.9240	45.767
1.9200	45.580
1.9160	45.729
1.9120	45.822
1.9080	46.008
1.9040	46.200
1.9000	46.364
1.8960	46.353
1.8920	46.710
1.8880	47.059
1.8840	47.269
1.8800	48.125
1.8760	48.792
1.8720	49.276
1.8680	49.264
1.8640	49.235
1.8600	49.331
1.8560	49.304
1.8520	49.768
1.8480	49.726
1.8440	49.959
1.8400	50.370
1.8360	50.586
1.8320	50.696
1.8280	50.384
1.8240	50.329
1.8200	50.136
1.8160	50.186
1.8120	50.065
1.8080	50.115
1.8040	50.235
1.8000	50.235
1.7960	50.124
1.7920	50.204
1.7880	50.424
1.7840	50.244
1.7800	50.325
1.7760	50.424
1.7720	50.164
1.7680	50.025
1.7640	49.936
1.7600	49.767
1.7560	49.816
1.7520	49.786
1.7480	49.885
1.7440	50.004
1.7400	50.263
1.7360	50.356
1.7320	50.388
1.7280	50.560
1.7240	50.469
1.7200	50.568
1.7160	50.635
1.7120	50.855
1.7080	50.603
1.7040	50.652
1.7000	50.549
1.6960	50.491
1.6920	50.371
1.6880	50.362
1.6840	50.171
1.6800	50.750
1.6760	50.522
1.6720	50.531
1.6680	50.183
1.6640	50.044
1.6600	50.084
1.6560	49.915
1.6520	49.806
1.6480	49.836
1.6440	50.105
1.6400	50.035
1.6360	49.945
1.6320	49.975
1.6280	49.806
1.6240	49.726
1.6200	49.737
1.6160	49.312
1.6120	49.184
1.6080	49.419
1.6040	49.527
1.6000	49.476
1.5960	49.448
1.5920	49.476
1.5880	49.257
1.5840	49.297
1.5800	49.635
1.5760	49.034
1.5720	48.776
1.5680	48.711
1.5640	48.442
1.5600	48.251
1.5560	48.087
1.5520	48.061
1.5480	48.124
1.5440	47.997
1.5400	47.808
1.5360	48.149
1.5320	48.263
1.5280	48.033
1.5240	47.740
1.5200	47.500
1.5160	47.514
1.5120	47.627
1.5080	47.878
1.5040	47.747
1.5000	47.585
1.4960	47.023
1.4920	46.757
1.4880	46.609
1.4840	46.535
1.4800	46.032
1.4760	45.604
1.4720	45.391
1.4680	45.732
1.4640	45.877
1.4600	45.732
1.4560	45.516
1.4520	45.229
1.4480	44.944
1.4440	44.817
1.4400	44.824
1.4360	44.804
1.4320	44.695
1.4280	44.624
1.4240	44.429
1.4200	44.304
1.4160	44.124
1.4120	43.848
1.4080	43.629
1.4040	43.075
1.4000	42.536
1.3960	41.931
1.3920	40.980
1.3880	40.425
1.3840	40.393
1.3800	40.960
1.3760	41.491
1.3720	41.486
1.3680	41.798
1.3640	41.938
1.3600	42.338
1.3560	42.271
1.3520	42.223
1.3480	41.939
1.3440	41.874
1.3400	41.713
1.3360	41.600
1.3320	41.436
1.3280	41.233
1.3240	40.917
1.3200	40.939
1.3160	40.738
1.3120	40.439
1.3080	40.260
1.3040	40.109
1.3000	39.842
1.2960	39.663
1.2920	39.487
1.2880	39.100
1.2840	39.071
1.2800	39.103
1.2760	39.104
1.2720	39.014
1.2680	39.014
1.2640	38.992
1.2600	38.718
1.2560	38.475
1.2520	38.384
1.2480	38.354
1.2440	37.904
1.2400	37.732
1.2360	37.761
1.2320	37.881
1.2280	37.816
1.2240	37.336
1.2200	37.126
1.2160	36.911
1.2120	36.826
1.2080	36.622
1.2040	36.532
1.2000	36.442
1.1960	36.152
1.1920	35.980
1.1880	35.701
1.1840	35.674
1.1800	35.647
1.1760	35.477
1.1720	35.335
1.1680	35.156
1.1640	34.897
1.1600	34.787
1.1560	34.738
1.1520	34.581
1.1480	34.613
1.1440	34.548
1.1400	34.665
1.1360	34.323
1.1320	34.065
1.1280	33.910
1.1240	33.896
1.1200	33.723
1.1160	33.839
1.1120	33.810
1.1080	33.785
1.1040	33.683
1.1000	33.508
1.0960	33.395
1.0920	33.064
1.0880	33.138
1.0840	33.014
1.0800	32.833
1.0760	32.726
1.0720	32.456
1.0680	32.076
1.0640	32.019
1.0600	31.933
1.0560	31.388
1.0520	30.985
1.0480	30.937
1.0440	30.987
1.0400	30.739
1.0360	30.581
1.0320	30.218
1.0280	29.948
1.0240	29.539
1.0200	29.086
1.0160	28.745
1.0120	28.238
1.0080	28.049
1.0040	27.637
1.0000	27.086
0.99600	26.807
0.99200	25.910
0.98800	25.983
0.98400	25.670
0.98000	25.426
0.97600	25.003
0.97200	24.505
0.96800	24.569
0.96400	24.277
0.96000	24.028
0.95600	23.683
0.95200	23.453
0.94800	23.273
0.94400	23.183
0.94000	22.970
0.93600	22.939
0.93200	22.775
0.92800	22.680
0.92400	22.687
0.92000	22.591
0.91600	22.655
0.91200	22.550
0.90800	22.671
0.90400	22.640
0.90000	22.671
0.89600	22.655
0.89200	22.655
0.88800	22.760
0.88400	22.792
0.88000	23.051
0.87600	23.100
0.87200	23.304
0.86800	23.271
0.86400	23.411
0.86000	23.699
0.85600	23.767
0.85200	23.874
0.84800	24.165
0.84400	24.199
0.84000	24.472
0.83600	24.652
0.83200	24.783
0.82800	24.947
0.82400	25.256
0.82000	25.548
0.81600	25.481
0.81200	25.660
0.80800	26.058
0.80400	26.290
0.80000	26.503
0.79900	26.576
0.79800	26.576
0.79700	26.651
0.79600	26.794
0.79500	26.697
0.79400	26.963
0.79300	26.943
0.79200	26.868
0.79100	26.843
0.79000	26.889
0.78900	26.868
0.78800	26.920
0.78700	26.943
0.78600	27.068
0.78500	26.771
0.78400	27.060
0.78300	27.060
0.78200	27.045
0.78100	27.139
0.78000	27.255
0.77900	27.325
0.77800	27.084
0.77700	26.940
0.77600	26.874
0.77500	26.728
0.77400	26.825
0.77300	27.115
0.77200	26.992
0.77100	26.802
0.77000	26.738
0.76900	26.785
0.76800	26.992
0.76700	27.035
0.76600	27.035
0.76500	26.822
0.76400	27.129
0.76300	26.914
0.76200	26.774
0.76100	27.103
0.76000	26.845
0.75900	26.776
0.75800	26.776
0.75700	26.583
0.75600	26.868
0.75500	26.766
0.75400	26.784
0.75300	26.316
0.75200	26.338
0.75100	26.338
0.75000	26.390
0.74900	26.286
0.74800	26.286
0.74700	26.189
0.74600	26.145
0.74500	26.189
0.74400	26.452
0.74300	26.056
0.74200	26.332
0.74100	26.484
0.74000	26.388
0.73900	25.987
0.73800	25.890
0.73700	25.899
0.73600	25.923
0.73500	25.899
0.73400	25.890
0.73300	25.862
0.73200	26.002
0.73100	25.964
0.73000	25.707
0.72900	25.840
0.72800	25.712
0.72700	25.885
0.72600	25.757
0.72500	25.659
0.72400	25.474
0.72300	25.376
0.72200	25.405
0.72100	25.496
0.72000	25.415
0.71900	25.641
0.71800	25.664
0.71700	25.345
0.71600	25.257
0.71500	25.125
0.71400	25.223
0.71300	25.269
0.71200	25.384
0.71100	25.137
0.71000	25.126
0.70900	25.159
0.70800	25.104
0.70700	24.681
0.70600	24.724
0.70500	24.745
0.70400	24.712
0.70300	24.841
0.70200	24.645
0.70100	24.551
0.70000	24.460
0.69900	24.751
0.69800	24.614
0.69700	24.693
0.69600	24.605
0.69500	24.449
0.69400	24.449
0.69300	24.427
0.69200	24.363
0.69100	24.449
0.69000	24.627
0.68900	24.593
0.68800	24.549
0.68700	24.249
0.68600	24.249
0.68500	24.292
0.68400	24.048
0.68300	24.048
0.68200	24.027
0.68100	24.127
0.68000	24.192
0.67900	24.213
0.67800	24.192
0.67700	23.948
0.67600	23.748
0.67500	23.811
0.67400	23.912
0.67300	23.912
0.67200	23.627
0.67100	23.854
0.67000	23.833
0.66900	23.854
0.66800	23.631
0.66700	23.531
0.66600	23.711
0.66500	23.489
0.66400	23.527
0.66300	23.506
0.66200	23.492
0.66100	23.291
0.66000	23.250
0.65900	23.355
0.65800	23.355
0.65700	23.211
0.65600	23.109
0.65500	23.029
0.65400	23.088
0.65300	23.047
0.65200	22.747
0.65100	23.007
0.65000	22.966
0.64900	22.708
0.64800	22.508
0.64700	22.525
0.64600	23.052
0.64500	22.848
0.64400	22.951
0.64300	22.910
0.64200	22.808
0.64100	22.587
0.64000	22.930
0.63900	22.992
0.63800	22.527
0.63700	22.127
0.63600	21.969
0.63500	22.127
0.63400	22.046
0.63300	22.127
0.63200	22.108
0.63100	22.104
0.63000	22.146
0.62900	22.008
0.62800	21.889
0.62700	21.789
0.62600	21.908
0.62500	22.004
0.62400	21.985
0.62300	21.727
0.62200	21.589
0.62100	21.869
0.62000	21.823
0.61900	22.161
0.61800	22.261
0.61700	21.897
0.61600	21.737
0.61500	21.699
0.61400	21.622
0.61300	21.446
0.61200	21.598
0.61100	21.535
0.61000	21.516
0.60900	21.497
0.60800	21.478
0.60700	21.175
0.60600	21.009
0.60500	20.991
0.60400	20.890
0.60300	21.029
0.60200	20.883
0.60100	20.668
0.60000	20.676
0.59900	20.731
0.59800	20.591
0.59700	20.684
0.59600	20.843
0.59500	20.678
0.59400	20.320
0.59300	20.466
0.59200	20.329
0.59100	20.104
0.59000	19.997
0.58900	19.947
0.58800	20.329
0.58700	19.983
0.58600	20.018
0.58500	20.001
0.58400	19.770
0.58300	19.705
0.58200	19.497
0.58100	19.480
0.58000	19.328
0.57900	19.466
0.57800	19.346
0.57700	19.277
0.57600	19.174
0.57500	19.191
0.57400	18.849
0.57300	18.850
0.57200	19.007
0.57100	18.871
0.57000	18.603
0.56900	18.485
0.56800	18.385
0.56700	18.346
0.56600	18.465
0.56500	18.347
0.56400	18.012
0.56300	18.074
0.56200	18.059
0.56100	17.957
0.56000	18.126
0.55900	17.878
0.55800	17.878
0.55700	18.045
0.55600	17.920
0.55500	17.795
0.55400	17.822
0.55300	17.821
0.55200	17.566
0.55100	17.506
0.55000	17.249
0.54900	17.527
0.54800	17.447
0.54700	17.334
0.54600	17.300
0.54500	17.327
0.54400	17.075
0.54300	17.253
0.54200	17.166
0.54100	16.965
0.54000	17.065
0.53900	17.055
0.53800	17.070
0.53700	16.928
0.53600	16.726
0.53500	16.613
0.53400	16.638
0.53300	16.513
0.53200	16.427
0.53100	16.415
0.53000	16.340
0.52900	16.301
0.52800	16.273
0.52700	16.261
0.52600	16.060
0.52500	16.160
0.52400	16.084
0.52300	16.149
0.52200	16.262
0.52100	16.049
0.52000	15.917
0.51900	15.602
0.51800	15.670
0.51700	15.581
0.51600	15.670
0.51500	15.805
0.51400	15.569
0.51300	15.479
0.51200	15.213
0.51100	15.102
0.51000	15.246
0.50900	15.224
0.50800	15.178
0.50700	15.546
0.50600	15.231
0.50500	14.997
0.50400	15.119
0.50300	15.173
0.50200	15.232
0.50100	15.277
0.50000	15.185
0.49900	15.077
0.49800	14.997
0.49700	14.906
0.49600	14.764
0.49500	14.795
0.49400	14.573
0.49300	14.806
0.49200	14.858
0.49100	14.706
0.49000	14.858
0.48900	14.755
0.48800	14.459
0.48700	14.401
0.48600	14.420
0.48500	14.243
0.48400	14.449
0.48300	14.682
0.48200	14.429
0.48100	14.328
0.48000	14.105
0.47900	14.124
0.47800	14.152
0.47700	14.050
0.47600	13.985
0.47500	13.967
0.47400	14.124
0.47300	13.899
0.47200	13.881
0.47100	13.854
0.47000	13.651
0.46900	13.590
0.46800	13.845
0.46700	13.707
0.46600	13.716
0.46500	13.699
0.46400	13.548
0.46300	13.454
0.46200	13.582
0.46100	13.436
0.46000	13.090
0.45900	13.090
0.45800	12.939
0.45700	12.965
0.45600	12.879
0.45500	12.854
0.45400	12.637
0.45300	12.709
0.45200	12.637
0.45100	12.605
0.45000	12.645
0.44900	12.670
0.44800	12.540
0.44700	12.239
0.44600	12.178
0.44500	12.278
0.44400	12.385
0.44300	11.856
0.44200	11.672
0.44100	11.989
0.44000	11.773
0.43900	11.787
0.43800	11.918
0.43700	11.698
0.43600	11.702
0.43500	11.716
0.43400	11.502
0.43300	11.282
0.43200	11.393
0.43100	11.411
0.43000	11.423
0.42900	11.225
0.42800	10.997
0.42700	10.958
0.42600	10.986
0.42500	10.756
0.42400	10.661
0.42300	10.909
0.42200	10.696
0.42100	10.594
0.42000	10.635
0.41900	10.604
0.41800	10.585
0.41700	10.449
0.41600	10.339
0.41500	10.340
0.41400	10.252
0.41300	10.124
0.41200	9.9209
0.41100	10.008
0.41000	10.003
0.40900	10.125
0.40800	9.9244
0.40700	9.9279
0.40600	9.9285
0.40500	9.8158
0.40400	9.7194
0.40300	9.8256
0.40200	9.8289
0.40100	9.7249
0.40000	9.7320
