Name:  Ornans
Type:  Stony Meteorites
Class:  Carbonaceous Chondrite
Subclass:  CO
Particle Size:  0-75 micrometers
Sample No.:  Ornans
Owner:  JHU
Wavelength range:  IR
Origin:  Meteorite seen to fall in France in 1868..  Museum National d'Histoire 
Naturelle sample No. 581 obtained via Tom Jones.
Description:  None.





Measurement:  Bidirectional reflectance
First Column:  X
Second Column:  Y
X Units:  Wavelength (micrometers)
Y Units:  Reflectance (percent)
First X Value:  25.044
Last X Value:  2.0795
Number of X Values:  2286
Additional information:  None

25.044	1.0027
24.924	1.0127
24.805	1.0088
24.686	0.99240
24.569	0.96870
24.454	0.94430
24.339	0.92460
24.225	0.91210
24.112	0.90650
24.001	0.90430
23.890	0.90010
23.781	0.89040
23.672	0.87260
23.564	0.84740
23.458	0.81810
23.352	0.78810
23.247	0.76030
23.144	0.73580
23.041	0.71480
22.939	0.69510
22.838	0.67550
22.738	0.65480
22.638	0.63400
22.540	0.61500
22.442	0.60010
22.345	0.59080
22.250	0.58860
22.154	0.59300
22.060	0.60200
21.967	0.61350
21.874	0.62500
21.782	0.63430
21.691	0.63940
21.601	0.63940
21.511	0.63400
21.422	0.62380
21.334	0.60940
21.247	0.59280
21.160	0.57570
21.074	0.56050
20.988	0.54960
20.904	0.54440
20.820	0.54640
20.737	0.55590
20.654	0.57200
20.572	0.59400
20.491	0.61940
20.410	0.64620
20.330	0.67260
20.251	0.69650
20.172	0.71750
20.094	0.73510
20.016	0.75000
19.939	0.76340
19.863	0.77610
19.787	0.78880
19.712	0.80180
19.637	0.81450
19.563	0.82690
19.489	0.83860
19.416	0.84910
19.344	0.85840
19.272	0.86600
19.201	0.87210
19.130	0.87500
19.059	0.87380
18.990	0.86720
18.920	0.85470
18.851	0.83620
18.783	0.81350
18.715	0.78910
18.648	0.76560
18.581	0.74580
18.515	0.73140
18.449	0.72270
18.384	0.71800
18.319	0.71460
18.254	0.70970
18.190	0.70090
18.126	0.68680
18.063	0.66700
18.001	0.64310
17.938	0.61670
17.876	0.59110
17.815	0.56790
17.754	0.54930
17.693	0.53690
17.633	0.53050
17.573	0.52980
17.514	0.53320
17.455	0.53860
17.396	0.54350
17.338	0.54540
17.280	0.54270
17.223	0.53420
17.166	0.52080
17.109	0.50340
17.053	0.48490
16.997	0.46750
16.942	0.45390
16.886	0.44510
16.832	0.44210
16.777	0.44480
16.723	0.45170
16.669	0.46120
16.616	0.47170
16.563	0.48170
16.510	0.48950
16.458	0.49440
16.406	0.49560
16.354	0.49340
16.302	0.48850
16.251	0.48190
16.200	0.47490
16.150	0.46850
16.100	0.46390
16.050	0.46190
16.000	0.46260
15.951	0.46460
15.902	0.46730
15.854	0.46850
15.805	0.46700
15.757	0.46220
15.710	0.45410
15.662	0.44410
15.615	0.43360
15.568	0.42460
15.521	0.41920
15.475	0.41800
15.429	0.42110
15.383	0.42820
15.338	0.43770
15.292	0.44820
15.248	0.45780
15.203	0.46530
15.158	0.46970
15.114	0.47090
15.070	0.46920
15.027	0.46560
14.983	0.46140
14.940	0.45830
14.897	0.45780
14.854	0.46090
14.812	0.46850
14.770	0.48000
14.728	0.49440
14.686	0.51070
14.645	0.52710
14.603	0.54220
14.562	0.55540
14.521	0.56690
14.481	0.57710
14.441	0.58640
14.400	0.59590
14.361	0.60600
14.321	0.61650
14.281	0.62770
14.242	0.63940
14.203	0.65140
14.164	0.66310
14.126	0.67460
14.087	0.68530
14.049	0.69480
14.011	0.70290
13.973	0.70920
13.936	0.71360
13.899	0.71680
13.861	0.71920
13.824	0.72220
13.788	0.72660
13.751	0.73340
13.715	0.74320
13.679	0.75630
13.643	0.77270
13.607	0.79130
13.571	0.81130
13.536	0.83230
13.500	0.85280
13.465	0.87280
13.430	0.89140
13.396	0.90890
13.361	0.92550
13.327	0.94160
13.293	0.95800
13.259	0.97490
13.225	0.99170
13.191	1.0088
13.158	1.0251
13.124	1.0398
13.091	1.0518
13.058	1.0608
13.026	1.0666
12.993	1.0696
12.960	1.0698
12.928	1.0686
12.896	1.0666
12.864	1.0642
12.832	1.0620
12.800	1.0596
12.769	1.0566
12.737	1.0530
12.706	1.0478
12.675	1.0410
12.644	1.0330
12.614	1.0234
12.583	1.0129
12.552	1.0015
12.522	0.98930
12.492	0.97660
12.462	0.96340
12.432	0.94950
12.402	0.93530
12.373	0.92040
12.343	0.90550
12.314	0.88990
12.285	0.87330
12.256	0.85550
12.227	0.83570
12.198	0.81370
12.169	0.78950
12.141	0.76340
12.113	0.73610
12.084	0.70900
12.056	0.68330
12.028	0.66090
12.000	0.64280
11.973	0.63010
11.945	0.62330
11.918	0.62210
11.890	0.62550
11.863	0.63280
11.836	0.64260
11.809	0.65430
11.782	0.66670
11.755	0.67990
11.729	0.69410
11.702	0.70950
11.676	0.72610
11.650	0.74370
11.624	0.76240
11.598	0.78150
11.572	0.80050
11.546	0.81880
11.520	0.83640
11.495	0.85250
11.469	0.86740
11.444	0.88090
11.419	0.89280
11.394	0.90330
11.369	0.91240
11.344	0.92020
11.319	0.92680
11.294	0.93260
11.270	0.93750
11.245	0.94190
11.221	0.94530
11.197	0.94800
11.173	0.94970
11.149	0.94990
11.125	0.94920
11.101	0.94750
11.077	0.94530
11.054	0.94310
11.030	0.94240
11.007	0.94340
10.983	0.94730
10.960	0.95410
10.937	0.96390
10.914	0.97630
10.891	0.99050
10.868	1.0049
10.846	1.0186
10.823	1.0303
10.800	1.0386
10.778	1.0430
10.755	1.0432
10.733	1.0391
10.711	1.0312
10.689	1.0205
10.667	1.0081
10.645	0.99460
10.623	0.98120
10.602	0.96830
10.580	0.95610
10.558	0.94460
10.537	0.93360
10.516	0.92330
10.494	0.91330
10.473	0.90380
10.452	0.89450
10.431	0.88550
10.410	0.87720
10.389	0.86910
10.368	0.86130
10.348	0.85400
10.327	0.84720
10.306	0.84060
10.286	0.83450
10.266	0.82840
10.245	0.82230
10.225	0.81540
10.205	0.80760
10.185	0.79860
10.165	0.78760
10.145	0.77540
10.125	0.76240
10.106	0.74950
10.086	0.73730
10.066	0.72700
10.047	0.71900
10.027	0.71340
10.008	0.70970
9.9887	0.70750
9.9695	0.70630
9.9504	0.70580
9.9313	0.70560
9.9123	0.70610
9.8934	0.70680
9.8746	0.70850
9.8558	0.71090
9.8371	0.71360
9.8185	0.71660
9.7999	0.71900
9.7814	0.72070
9.7630	0.72170
9.7447	0.72220
9.7264	0.72290
9.7082	0.72410
9.6900	0.72660
9.6719	0.73100
9.6539	0.73710
9.6360	0.74510
9.6181	0.75440
9.6003	0.76420
9.5825	0.77370
9.5649	0.78200
9.5472	0.78810
9.5297	0.79200
9.5122	0.79300
9.4948	0.79100
9.4774	0.78690
9.4601	0.78080
9.4429	0.77340
9.4257	0.76590
9.4086	0.75810
9.3916	0.75070
9.3746	0.74340
9.3577	0.73610
9.3408	0.72800
9.3240	0.71920
9.3073	0.70920
9.2906	0.69820
9.2740	0.68650
9.2574	0.67460
9.2409	0.66310
9.2245	0.65260
9.2081	0.64380
9.1918	0.63670
9.1755	0.63180
9.1593	0.62940
9.1431	0.62890
9.1270	0.63060
9.1110	0.63400
9.0950	0.63870
9.0791	0.64400
9.0632	0.64970
9.0474	0.65530
9.0316	0.66040
9.0159	0.66550
9.0003	0.67070
8.9847	0.67630
8.9691	0.68260
8.9536	0.69020
8.9382	0.69900
8.9228	0.70920
8.9075	0.72070
8.8922	0.73270
8.8770	0.74490
8.8618	0.75630
8.8467	0.76660
8.8316	0.77490
8.8166	0.78050
8.8016	0.78340
8.7867	0.78370
8.7718	0.78220
8.7570	0.77980
8.7422	0.77860
8.7275	0.78000
8.7129	0.78520
8.6982	0.79470
8.6837	0.80810
8.6692	0.82470
8.6547	0.84280
8.6403	0.86060
8.6259	0.87700
8.6116	0.89110
8.5973	0.90280
8.5830	0.91280
8.5688	0.92160
8.5547	0.93020
8.5406	0.93870
8.5266	0.94780
8.5126	0.95750
8.4986	0.96730
8.4847	0.97730
8.4708	0.98710
8.4570	0.99710
8.4432	1.0076
8.4295	1.0183
8.4158	1.0300
8.4022	1.0430
8.3886	1.0566
8.3750	1.0715
8.3615	1.0869
8.3481	1.1023
8.3347	1.1177
8.3213	1.1326
8.3079	1.1465
8.2946	1.1597
8.2814	1.1719
8.2682	1.1833
8.2550	1.1946
8.2419	1.2056
8.2288	1.2165
8.2158	1.2283
8.2028	1.2405
8.1898	1.2534
8.1769	1.2668
8.1640	1.2805
8.1512	1.2944
8.1384	1.3083
8.1256	1.3218
8.1129	1.3350
8.1002	1.3479
8.0876	1.3601
8.0750	1.3721
8.0624	1.3838
8.0499	1.3950
8.0374	1.4060
8.0250	1.4165
8.0126	1.4263
8.0002	1.4351
7.9879	1.4434
7.9756	1.4504
7.9634	1.4568
7.9512	1.4629
7.9390	1.4690
7.9268	1.4756
7.9147	1.4827
7.9027	1.4907
7.8906	1.4998
7.8786	1.5088
7.8667	1.5178
7.8548	1.5264
7.8429	1.5339
7.8310	1.5403
7.8192	1.5454
7.8075	1.5496
7.7957	1.5532
7.7840	1.5566
7.7723	1.5601
7.7607	1.5642
7.7491	1.5688
7.7375	1.5745
7.7260	1.5808
7.7145	1.5876
7.7031	1.5947
7.6916	1.6016
7.6802	1.6079
7.6689	1.6135
7.6575	1.6184
7.6462	1.6226
7.6350	1.6265
7.6238	1.6306
7.6126	1.6355
7.6014	1.6416
7.5903	1.6487
7.5792	1.6570
7.5681	1.6655
7.5571	1.6743
7.5461	1.6826
7.5351	1.6902
7.5242	1.6973
7.5133	1.7034
7.5024	1.7095
7.4916	1.7156
7.4807	1.7222
7.4700	1.7290
7.4592	1.7366
7.4485	1.7439
7.4378	1.7515
7.4272	1.7585
7.4165	1.7651
7.4059	1.7710
7.3954	1.7761
7.3848	1.7808
7.3743	1.7849
7.3639	1.7888
7.3534	1.7925
7.3430	1.7961
7.3326	1.7998
7.3223	1.8035
7.3119	1.8071
7.3016	1.8105
7.2914	1.8137
7.2811	1.8171
7.2709	1.8203
7.2607	1.8240
7.2506	1.8279
7.2404	1.8323
7.2303	1.8369
7.2203	1.8418
7.2102	1.8464
7.2002	1.8508
7.1902	1.8547
7.1803	1.8579
7.1703	1.8603
7.1604	1.8625
7.1506	1.8650
7.1407	1.8677
7.1309	1.8711
7.1211	1.8750
7.1113	1.8796
7.1016	1.8845
7.0919	1.8894
7.0822	1.8943
7.0725	1.8987
7.0629	1.9028
7.0533	1.9072
7.0437	1.9116
7.0341	1.9165
7.0246	1.9216
7.0151	1.9272
7.0056	1.9326
6.9962	1.9380
6.9867	1.9431
6.9773	1.9480
6.9679	1.9524
6.9586	1.9565
6.9493	1.9600
6.9400	1.9629
6.9307	1.9653
6.9214	1.9670
6.9122	1.9683
6.9030	1.9695
6.8938	1.9705
6.8847	1.9719
6.8755	1.9739
6.8664	1.9758
6.8573	1.9780
6.8483	1.9800
6.8393	1.9819
6.8302	1.9839
6.8213	1.9861
6.8123	1.9888
6.8034	1.9924
6.7944	1.9968
6.7855	2.0017
6.7767	2.0071
6.7678	2.0117
6.7590	2.0151
6.7502	2.0168
6.7414	2.0171
6.7327	2.0159
6.7239	2.0139
6.7152	2.0115
6.7065	2.0090
6.6979	2.0073
6.6892	2.0063
6.6806	2.0059
6.6720	2.0059
6.6634	2.0061
6.6549	2.0068
6.6464	2.0076
6.6378	2.0083
6.6294	2.0093
6.6209	2.0102
6.6124	2.0115
6.6040	2.0132
6.5956	2.0151
6.5872	2.0178
6.5789	2.0212
6.5705	2.0251
6.5622	2.0293
6.5539	2.0330
6.5456	2.0356
6.5374	2.0371
6.5292	2.0366
6.5209	2.0349
6.5128	2.0320
6.5046	2.0288
6.4964	2.0259
6.4883	2.0237
6.4802	2.0225
6.4721	2.0215
6.4640	2.0203
6.4560	2.0185
6.4480	2.0161
6.4399	2.0127
6.4320	2.0088
6.4240	2.0049
6.4160	2.0017
6.4081	1.9995
6.4002	1.9980
6.3923	1.9973
6.3844	1.9963
6.3766	1.9951
6.3687	1.9932
6.3609	1.9907
6.3531	1.9883
6.3454	1.9858
6.3376	1.9839
6.3299	1.9827
6.3221	1.9824
6.3144	1.9827
6.3068	1.9831
6.2991	1.9841
6.2914	1.9849
6.2838	1.9856
6.2762	1.9863
6.2686	1.9866
6.2611	1.9866
6.2535	1.9866
6.2460	1.9863
6.2385	1.9856
6.2310	1.9846
6.2235	1.9834
6.2160	1.9819
6.2086	1.9802
6.2011	1.9788
6.1937	1.9773
6.1863	1.9766
6.1790	1.9763
6.1716	1.9768
6.1643	1.9778
6.1570	1.9788
6.1496	1.9797
6.1424	1.9797
6.1351	1.9788
6.1278	1.9761
6.1206	1.9719
6.1134	1.9658
6.1062	1.9578
6.0990	1.9475
6.0918	1.9353
6.0847	1.9219
6.0776	1.9072
6.0704	1.8926
6.0633	1.8789
6.0563	1.8669
6.0492	1.8574
6.0421	1.8508
6.0351	1.8472
6.0281	1.8459
6.0211	1.8467
6.0141	1.8486
6.0071	1.8516
6.0002	1.8552
5.9932	1.8594
5.9863	1.8640
5.9794	1.8691
5.9725	1.8748
5.9657	1.8811
5.9588	1.8877
5.9520	1.8943
5.9451	1.9014
5.9383	1.9080
5.9315	1.9143
5.9247	1.9204
5.9180	1.9260
5.9112	1.9316
5.9045	1.9373
5.8978	1.9429
5.8911	1.9487
5.8844	1.9546
5.8777	1.9604
5.8711	1.9656
5.8644	1.9700
5.8578	1.9736
5.8512	1.9763
5.8446	1.9783
5.8380	1.9800
5.8314	1.9819
5.8249	1.9841
5.8184	1.9866
5.8118	1.9888
5.8053	1.9902
5.7988	1.9905
5.7923	1.9890
5.7859	1.9861
5.7794	1.9817
5.7730	1.9766
5.7666	1.9712
5.7602	1.9661
5.7538	1.9609
5.7474	1.9558
5.7410	1.9507
5.7347	1.9446
5.7283	1.9380
5.7220	1.9304
5.7157	1.9226
5.7094	1.9145
5.7031	1.9070
5.6969	1.8999
5.6906	1.8938
5.6844	1.8887
5.6782	1.8843
5.6719	1.8811
5.6657	1.8787
5.6596	1.8777
5.6534	1.8777
5.6472	1.8791
5.6411	1.8823
5.6349	1.8870
5.6288	1.8931
5.6227	1.9001
5.6166	1.9080
5.6106	1.9165
5.6045	1.9250
5.5984	1.9338
5.5924	1.9429
5.5864	1.9517
5.5804	1.9607
5.5744	1.9695
5.5684	1.9780
5.5624	1.9858
5.5564	1.9927
5.5505	1.9980
5.5445	2.0019
5.5386	2.0046
5.5327	2.0061
5.5268	2.0071
5.5209	2.0078
5.5151	2.0085
5.5092	2.0098
5.5033	2.0110
5.4975	2.0124
5.4917	2.0137
5.4859	2.0149
5.4801	2.0156
5.4743	2.0159
5.4685	2.0164
5.4628	2.0168
5.4570	2.0178
5.4513	2.0198
5.4455	2.0229
5.4398	2.0269
5.4341	2.0320
5.4284	2.0378
5.4228	2.0442
5.4171	2.0503
5.4114	2.0561
5.4058	2.0613
5.4002	2.0657
5.3945	2.0693
5.3889	2.0725
5.3833	2.0752
5.3778	2.0776
5.3722	2.0803
5.3666	2.0830
5.3611	2.0862
5.3555	2.0896
5.3500	2.0933
5.3445	2.0977
5.3390	2.1020
5.3335	2.1064
5.3280	2.1103
5.3225	2.1138
5.3171	2.1160
5.3116	2.1172
5.3062	2.1172
5.3008	2.1162
5.2954	2.1147
5.2900	2.1130
5.2846	2.1116
5.2792	2.1108
5.2738	2.1108
5.2684	2.1118
5.2631	2.1135
5.2578	2.1160
5.2524	2.1184
5.2471	2.1208
5.2418	2.1223
5.2365	2.1230
5.2312	2.1226
5.2260	2.1211
5.2207	2.1189
5.2154	2.1162
5.2102	2.1138
5.2050	2.1121
5.1998	2.1111
5.1945	2.1108
5.1893	2.1113
5.1842	2.1123
5.1790	2.1133
5.1738	2.1140
5.1686	2.1140
5.1635	2.1135
5.1584	2.1125
5.1532	2.1111
5.1481	2.1101
5.1430	2.1094
5.1379	2.1091
5.1328	2.1096
5.1277	2.1111
5.1227	2.1128
5.1176	2.1152
5.1126	2.1182
5.1075	2.1216
5.1025	2.1250
5.0975	2.1287
5.0925	2.1321
5.0875	2.1355
5.0825	2.1387
5.0775	2.1418
5.0726	2.1448
5.0676	2.1477
5.0627	2.1511
5.0577	2.1548
5.0528	2.1587
5.0479	2.1626
5.0430	2.1667
5.0380	2.1702
5.0332	2.1731
5.0283	2.1753
5.0234	2.1763
5.0185	2.1768
5.0137	2.1768
5.0088	2.1765
5.0040	2.1768
4.9992	2.1775
4.9944	2.1789
4.9896	2.1809
4.9848	2.1833
4.9800	2.1860
4.9752	2.1882
4.9704	2.1902
4.9657	2.1914
4.9609	2.1921
4.9562	2.1926
4.9514	2.1934
4.9467	2.1943
4.9420	2.1958
4.9373	2.1980
4.9326	2.2012
4.9279	2.2048
4.9232	2.2087
4.9186	2.2129
4.9139	2.2170
4.9092	2.2209
4.9046	2.2246
4.9000	2.2280
4.8953	2.2312
4.8907	2.2341
4.8861	2.2371
4.8815	2.2400
4.8769	2.2432
4.8723	2.2463
4.8678	2.2500
4.8632	2.2534
4.8586	2.2568
4.8541	2.2600
4.8495	2.2629
4.8450	2.2654
4.8405	2.2673
4.8360	2.2688
4.8315	2.2703
4.8270	2.2712
4.8225	2.2727
4.8180	2.2747
4.8135	2.2773
4.8090	2.2808
4.8046	2.2847
4.8001	2.2888
4.7957	2.2925
4.7913	2.2959
4.7868	2.2981
4.7824	2.2996
4.7780	2.3000
4.7736	2.3003
4.7692	2.3005
4.7648	2.3015
4.7605	2.3032
4.7561	2.3054
4.7517	2.3081
4.7474	2.3110
4.7431	2.3135
4.7387	2.3152
4.7344	2.3159
4.7301	2.3159
4.7258	2.3152
4.7215	2.3144
4.7172	2.3137
4.7129	2.3140
4.7086	2.3152
4.7043	2.3171
4.7000	2.3203
4.6958	2.3237
4.6915	2.3274
4.6873	2.3310
4.6831	2.3342
4.6788	2.3367
4.6746	2.3384
4.6704	2.3398
4.6662	2.3406
4.6620	2.3408
4.6578	2.3408
4.6536	2.3408
4.6495	2.3408
4.6453	2.3411
4.6411	2.3420
4.6370	2.3437
4.6328	2.3462
4.6287	2.3498
4.6246	2.3542
4.6205	2.3591
4.6163	2.3643
4.6122	2.3686
4.6081	2.3718
4.6040	2.3740
4.6000	2.3745
4.5959	2.3740
4.5918	2.3728
4.5877	2.3711
4.5837	2.3699
4.5796	2.3694
4.5756	2.3699
4.5716	2.3713
4.5675	2.3735
4.5635	2.3762
4.5595	2.3791
4.5555	2.3821
4.5515	2.3848
4.5475	2.3872
4.5435	2.3889
4.5395	2.3906
4.5356	2.3918
4.5316	2.3928
4.5276	2.3935
4.5237	2.3940
4.5197	2.3948
4.5158	2.3955
4.5119	2.3965
4.5080	2.3977
4.5040	2.3989
4.5001	2.4001
4.4962	2.4014
4.4923	2.4023
4.4884	2.4031
4.4846	2.4031
4.4807	2.4028
4.4768	2.4023
4.4730	2.4016
4.4691	2.4011
4.4652	2.4009
4.4614	2.4011
4.4576	2.4016
4.4537	2.4026
4.4499	2.4036
4.4461	2.4048
4.4423	2.4060
4.4385	2.4075
4.4347	2.4087
4.4309	2.4104
4.4271	2.4121
4.4233	2.4141
4.4196	2.4158
4.4158	2.4172
4.4120	2.4185
4.4083	2.4187
4.4045	2.4185
4.4008	2.4175
4.3971	2.4163
4.3934	2.4150
4.3896	2.4141
4.3859	2.4136
4.3822	2.4136
4.3785	2.4141
4.3748	2.4150
4.3711	2.4158
4.3674	2.4163
4.3638	2.4163
4.3601	2.4158
4.3564	2.4148
4.3528	2.4136
4.3491	2.4121
4.3455	2.4106
4.3418	2.4097
4.3382	2.4089
4.3346	2.4089
4.3310	2.4094
4.3273	2.4102
4.3237	2.4106
4.3201	2.4109
4.3165	2.4109
4.3129	2.4102
4.3094	2.4089
4.3058	2.4080
4.3022	2.4070
4.2986	2.4070
4.2951	2.4077
4.2915	2.4094
4.2880	2.4119
4.2844	2.4143
4.2809	2.4167
4.2774	2.4182
4.2738	2.4187
4.2703	2.4185
4.2668	2.4175
4.2633	2.4165
4.2598	2.4155
4.2563	2.4155
4.2528	2.4160
4.2493	2.4175
4.2458	2.4189
4.2424	2.4206
4.2389	2.4219
4.2354	2.4226
4.2320	2.4226
4.2285	2.4219
4.2251	2.4209
4.2216	2.4199
4.2182	2.4189
4.2148	2.4185
4.2113	2.4180
4.2079	2.4177
4.2045	2.4175
4.2011	2.4170
4.1977	2.4163
4.1943	2.4150
4.1909	2.4138
4.1875	2.4123
4.1841	2.4109
4.1808	2.4097
4.1774	2.4087
4.1740	2.4080
4.1707	2.4077
4.1673	2.4080
4.1640	2.4082
4.1606	2.4087
4.1573	2.4092
4.1540	2.4099
4.1506	2.4106
4.1473	2.4116
4.1440	2.4128
4.1407	2.4145
4.1374	2.4163
4.1341	2.4175
4.1308	2.4185
4.1275	2.4185
4.1242	2.4177
4.1209	2.4160
4.1177	2.4136
4.1144	2.4106
4.1111	2.4080
4.1079	2.4058
4.1046	2.4040
4.1014	2.4031
4.0981	2.4028
4.0949	2.4036
4.0917	2.4045
4.0884	2.4058
4.0852	2.4075
4.0820	2.4092
4.0788	2.4109
4.0756	2.4126
4.0724	2.4143
4.0692	2.4155
4.0660	2.4167
4.0628	2.4175
4.0596	2.4180
4.0565	2.4180
4.0533	2.4175
4.0501	2.4172
4.0470	2.4167
4.0438	2.4163
4.0406	2.4160
4.0375	2.4158
4.0344	2.4155
4.0312	2.4155
4.0281	2.4158
4.0250	2.4160
4.0218	2.4163
4.0187	2.4167
4.0156	2.4170
4.0125	2.4167
4.0094	2.4163
4.0063	2.4155
4.0032	2.4143
4.0001	2.4128
3.9970	2.4111
3.9940	2.4099
3.9909	2.4089
3.9878	2.4082
3.9847	2.4080
3.9817	2.4080
3.9786	2.4082
3.9756	2.4084
3.9725	2.4084
3.9695	2.4084
3.9665	2.4082
3.9634	2.4082
3.9604	2.4080
3.9574	2.4080
3.9544	2.4084
3.9513	2.4089
3.9483	2.4097
3.9453	2.4106
3.9423	2.4114
3.9393	2.4119
3.9363	2.4121
3.9333	2.4119
3.9304	2.4114
3.9274	2.4106
3.9244	2.4099
3.9214	2.4092
3.9185	2.4087
3.9155	2.4087
3.9126	2.4089
3.9096	2.4094
3.9067	2.4104
3.9037	2.4111
3.9008	2.4121
3.8979	2.4128
3.8949	2.4136
3.8920	2.4141
3.8891	2.4145
3.8862	2.4148
3.8833	2.4145
3.8804	2.4145
3.8775	2.4141
3.8746	2.4131
3.8717	2.4119
3.8688	2.4102
3.8659	2.4084
3.8630	2.4070
3.8601	2.4055
3.8573	2.4048
3.8544	2.4045
3.8515	2.4048
3.8487	2.4055
3.8458	2.4060
3.8430	2.4065
3.8401	2.4065
3.8373	2.4060
3.8344	2.4053
3.8316	2.4038
3.8288	2.4023
3.8259	2.4004
3.8231	2.3984
3.8203	2.3960
3.8175	2.3935
3.8147	2.3904
3.8119	2.3872
3.8091	2.3838
3.8063	2.3806
3.8035	2.3779
3.8007	2.3762
3.7979	2.3755
3.7951	2.3757
3.7924	2.3767
3.7896	2.3787
3.7868	2.3811
3.7841	2.3838
3.7813	2.3870
3.7785	2.3901
3.7758	2.3931
3.7730	2.3955
3.7703	2.3975
3.7676	2.3982
3.7648	2.3982
3.7621	2.3970
3.7594	2.3950
3.7566	2.3926
3.7539	2.3901
3.7512	2.3882
3.7485	2.3867
3.7458	2.3855
3.7431	2.3848
3.7404	2.3843
3.7377	2.3838
3.7350	2.3835
3.7323	2.3828
3.7296	2.3823
3.7269	2.3821
3.7242	2.3816
3.7216	2.3811
3.7189	2.3809
3.7162	2.3801
3.7136	2.3794
3.7109	2.3782
3.7083	2.3767
3.7056	2.3747
3.7030	2.3726
3.7003	2.3704
3.6977	2.3682
3.6950	2.3662
3.6924	2.3645
3.6898	2.3635
3.6872	2.3628
3.6845	2.3623
3.6819	2.3616
3.6793	2.3606
3.6767	2.3591
3.6741	2.3572
3.6715	2.3550
3.6689	2.3533
3.6663	2.3523
3.6637	2.3523
3.6611	2.3533
3.6585	2.3552
3.6560	2.3577
3.6534	2.3599
3.6508	2.3616
3.6482	2.3621
3.6457	2.3616
3.6431	2.3601
3.6406	2.3581
3.6380	2.3560
3.6355	2.3545
3.6329	2.3535
3.6304	2.3535
3.6278	2.3545
3.6253	2.3557
3.6227	2.3572
3.6202	2.3584
3.6177	2.3594
3.6152	2.3594
3.6127	2.3589
3.6101	2.3574
3.6076	2.3557
3.6051	2.3533
3.6026	2.3508
3.6001	2.3484
3.5976	2.3457
3.5951	2.3435
3.5926	2.3413
3.5901	2.3396
3.5876	2.3384
3.5852	2.3374
3.5827	2.3369
3.5802	2.3369
3.5777	2.3374
3.5753	2.3379
3.5728	2.3384
3.5704	2.3389
3.5679	2.3389
3.5654	2.3384
3.5630	2.3376
3.5605	2.3364
3.5581	2.3347
3.5557	2.3330
3.5532	2.3310
3.5508	2.3293
3.5484	2.3276
3.5459	2.3259
3.5435	2.3245
3.5411	2.3227
3.5387	2.3213
3.5363	2.3201
3.5338	2.3191
3.5314	2.3186
3.5290	2.3186
3.5266	2.3191
3.5242	2.3196
3.5218	2.3196
3.5195	2.3191
3.5171	2.3171
3.5147	2.3142
3.5123	2.3103
3.5099	2.3057
3.5075	2.3008
3.5052	2.2964
3.5028	2.2930
3.5004	2.2905
3.4981	2.2895
3.4957	2.2898
3.4934	2.2908
3.4910	2.2922
3.4887	2.2942
3.4863	2.2961
3.4840	2.2976
3.4816	2.2988
3.4793	2.2996
3.4770	2.2998
3.4746	2.2998
3.4723	2.2993
3.4700	2.2988
3.4677	2.2981
3.4653	2.2976
3.4630	2.2966
3.4607	2.2959
3.4584	2.2949
3.4561	2.2939
3.4538	2.2927
3.4515	2.2915
3.4492	2.2903
3.4469	2.2886
3.4446	2.2869
3.4423	2.2849
3.4400	2.2825
3.4378	2.2795
3.4355	2.2761
3.4332	2.2720
3.4309	2.2676
3.4287	2.2632
3.4264	2.2590
3.4241	2.2559
3.4219	2.2539
3.4196	2.2532
3.4174	2.2537
3.4151	2.2549
3.4129	2.2568
3.4106	2.2588
3.4084	2.2605
3.4061	2.2615
3.4039	2.2622
3.4017	2.2622
3.3994	2.2620
3.3972	2.2615
3.3950	2.2610
3.3928	2.2602
3.3906	2.2595
3.3883	2.2583
3.3861	2.2571
3.3839	2.2559
3.3817	2.2551
3.3795	2.2549
3.3773	2.2554
3.3751	2.2566
3.3729	2.2581
3.3707	2.2598
3.3685	2.2612
3.3663	2.2624
3.3641	2.2629
3.3620	2.2634
3.3598	2.2632
3.3576	2.2629
3.3554	2.2622
3.3533	2.2617
3.3511	2.2610
3.3489	2.2602
3.3468	2.2600
3.3446	2.2600
3.3425	2.2602
3.3403	2.2607
3.3382	2.2610
3.3360	2.2610
3.3339	2.2602
3.3317	2.2585
3.3296	2.2561
3.3274	2.2529
3.3253	2.2498
3.3232	2.2468
3.3210	2.2444
3.3189	2.2429
3.3168	2.2422
3.3147	2.2419
3.3126	2.2422
3.3104	2.2427
3.3083	2.2427
3.3062	2.2424
3.3041	2.2417
3.3020	2.2407
3.2999	2.2395
3.2978	2.2383
3.2957	2.2373
3.2936	2.2363
3.2915	2.2356
3.2894	2.2349
3.2874	2.2339
3.2853	2.2327
3.2832	2.2307
3.2811	2.2283
3.2790	2.2251
3.2770	2.2217
3.2749	2.2183
3.2728	2.2151
3.2708	2.2126
3.2687	2.2112
3.2666	2.2109
3.2646	2.2112
3.2625	2.2122
3.2605	2.2134
3.2584	2.2141
3.2564	2.2141
3.2543	2.2129
3.2523	2.2109
3.2503	2.2075
3.2482	2.2034
3.2462	2.1987
3.2442	2.1941
3.2421	2.1897
3.2401	2.1863
3.2381	2.1838
3.2361	2.1831
3.2340	2.1836
3.2320	2.1853
3.2300	2.1880
3.2280	2.1907
3.2260	2.1931
3.2240	2.1946
3.2220	2.1951
3.2200	2.1943
3.2180	2.1926
3.2160	2.1907
3.2140	2.1885
3.2120	2.1868
3.2100	2.1858
3.2080	2.1853
3.2060	2.1858
3.2040	2.1865
3.2021	2.1877
3.2001	2.1887
3.1981	2.1894
3.1961	2.1899
3.1942	2.1899
3.1922	2.1894
3.1902	2.1885
3.1883	2.1870
3.1863	2.1851
3.1844	2.1824
3.1824	2.1794
3.1805	2.1760
3.1785	2.1728
3.1766	2.1697
3.1746	2.1672
3.1727	2.1655
3.1707	2.1648
3.1688	2.1650
3.1669	2.1658
3.1649	2.1667
3.1630	2.1675
3.1611	2.1677
3.1591	2.1672
3.1572	2.1658
3.1553	2.1641
3.1534	2.1619
3.1515	2.1597
3.1495	2.1580
3.1476	2.1565
3.1457	2.1555
3.1438	2.1550
3.1419	2.1545
3.1400	2.1540
3.1381	2.1533
3.1362	2.1523
3.1343	2.1509
3.1324	2.1497
3.1305	2.1482
3.1286	2.1467
3.1268	2.1457
3.1249	2.1450
3.1230	2.1443
3.1211	2.1435
3.1192	2.1423
3.1174	2.1404
3.1155	2.1377
3.1136	2.1345
3.1117	2.1311
3.1099	2.1284
3.1080	2.1265
3.1061	2.1262
3.1043	2.1277
3.1024	2.1309
3.1006	2.1345
3.0987	2.1382
3.0969	2.1406
3.0950	2.1414
3.0932	2.1401
3.0913	2.1370
3.0895	2.1326
3.0876	2.1282
3.0858	2.1240
3.0840	2.1208
3.0821	2.1189
3.0803	2.1184
3.0785	2.1186
3.0766	2.1194
3.0748	2.1206
3.0730	2.1218
3.0712	2.1230
3.0694	2.1243
3.0675	2.1250
3.0657	2.1252
3.0639	2.1252
3.0621	2.1248
3.0603	2.1240
3.0585	2.1230
3.0567	2.1223
3.0549	2.1218
3.0531	2.1213
3.0513	2.1208
3.0495	2.1199
3.0477	2.1179
3.0459	2.1152
3.0441	2.1118
3.0423	2.1077
3.0406	2.1033
3.0388	2.0994
3.0370	2.0964
3.0352	2.0945
3.0334	2.0933
3.0317	2.0930
3.0299	2.0930
3.0281	2.0930
3.0264	2.0928
3.0246	2.0925
3.0228	2.0925
3.0211	2.0923
3.0193	2.0925
3.0176	2.0928
3.0158	2.0933
3.0140	2.0933
3.0123	2.0930
3.0105	2.0923
3.0088	2.0913
3.0070	2.0898
3.0053	2.0884
3.0036	2.0867
3.0018	2.0852
3.0001	2.0840
2.9984	2.0830
2.9966	2.0820
2.9949	2.0818
2.9932	2.0818
2.9914	2.0820
2.9897	2.0828
2.9880	2.0832
2.9863	2.0835
2.9845	2.0830
2.9828	2.0815
2.9811	2.0791
2.9794	2.0759
2.9777	2.0720
2.9760	2.0686
2.9743	2.0657
2.9726	2.0642
2.9709	2.0642
2.9692	2.0652
2.9675	2.0671
2.9658	2.0691
2.9641	2.0706
2.9624	2.0713
2.9607	2.0710
2.9590	2.0703
2.9573	2.0691
2.9556	2.0679
2.9539	2.0669
2.9523	2.0664
2.9506	2.0657
2.9489	2.0654
2.9472	2.0647
2.9455	2.0640
2.9439	2.0630
2.9422	2.0615
2.9405	2.0598
2.9389	2.0576
2.9372	2.0554
2.9355	2.0530
2.9339	2.0510
2.9322	2.0493
2.9306	2.0481
2.9289	2.0478
2.9272	2.0483
2.9256	2.0496
2.9239	2.0510
2.9223	2.0522
2.9207	2.0532
2.9190	2.0537
2.9174	2.0535
2.9157	2.0522
2.9141	2.0505
2.9124	2.0486
2.9108	2.0466
2.9092	2.0449
2.9075	2.0437
2.9059	2.0435
2.9043	2.0439
2.9027	2.0454
2.9010	2.0474
2.8994	2.0496
2.8978	2.0515
2.8962	2.0527
2.8946	2.0525
2.8929	2.0513
2.8913	2.0488
2.8897	2.0454
2.8881	2.0422
2.8865	2.0395
2.8849	2.0381
2.8833	2.0383
2.8817	2.0400
2.8801	2.0430
2.8785	2.0461
2.8769	2.0491
2.8753	2.0505
2.8737	2.0503
2.8721	2.0478
2.8705	2.0439
2.8689	2.0388
2.8673	2.0334
2.8658	2.0286
2.8642	2.0254
2.8626	2.0239
2.8610	2.0247
2.8594	2.0273
2.8579	2.0315
2.8563	2.0364
2.8547	2.0417
2.8531	2.0464
2.8516	2.0500
2.8500	2.0522
2.8484	2.0532
2.8469	2.0530
2.8453	2.0518
2.8437	2.0500
2.8422	2.0483
2.8406	2.0466
2.8391	2.0456
2.8375	2.0452
2.8360	2.0449
2.8344	2.0447
2.8329	2.0447
2.8313	2.0444
2.8298	2.0439
2.8282	2.0432
2.8267	2.0422
2.8252	2.0413
2.8236	2.0405
2.8221	2.0400
2.8205	2.0403
2.8190	2.0415
2.8175	2.0432
2.8159	2.0456
2.8144	2.0483
2.8129	2.0508
2.8114	2.0527
2.8098	2.0542
2.8083	2.0544
2.8068	2.0539
2.8053	2.0527
2.8038	2.0515
2.8022	2.0505
2.8007	2.0505
2.7992	2.0513
2.7977	2.0530
2.7962	2.0554
2.7947	2.0579
2.7932	2.0601
2.7917	2.0610
2.7902	2.0610
2.7887	2.0596
2.7872	2.0574
2.7857	2.0544
2.7842	2.0520
2.7827	2.0500
2.7812	2.0491
2.7797	2.0493
2.7782	2.0500
2.7767	2.0515
2.7752	2.0530
2.7738	2.0544
2.7723	2.0559
2.7708	2.0576
2.7693	2.0596
2.7678	2.0615
2.7664	2.0637
2.7649	2.0654
2.7634	2.0666
2.7619	2.0671
2.7605	2.0669
2.7590	2.0662
2.7575	2.0654
2.7561	2.0649
2.7546	2.0652
2.7531	2.0664
2.7517	2.0688
2.7502	2.0715
2.7488	2.0745
2.7473	2.0767
2.7458	2.0779
2.7444	2.0784
2.7429	2.0779
2.7415	2.0774
2.7400	2.0771
2.7386	2.0774
2.7371	2.0779
2.7357	2.0789
2.7343	2.0801
2.7328	2.0808
2.7314	2.0810
2.7299	2.0810
2.7285	2.0813
2.7271	2.0818
2.7256	2.0830
2.7242	2.0852
2.7228	2.0884
2.7213	2.0915
2.7199	2.0947
2.7185	2.0969
2.7171	2.0979
2.7156	2.0974
2.7142	2.0957
2.7128	2.0930
2.7114	2.0903
2.7100	2.0884
2.7085	2.0876
2.7071	2.0886
2.7057	2.0911
2.7043	2.0945
2.7029	2.0986
2.7015	2.1023
2.7001	2.1050
2.6987	2.1067
2.6973	2.1074
2.6959	2.1074
2.6945	2.1074
2.6931	2.1081
2.6917	2.1094
2.6903	2.1116
2.6889	2.1140
2.6875	2.1169
2.6861	2.1191
2.6847	2.1204
2.6833	2.1201
2.6819	2.1184
2.6805	2.1147
2.6791	2.1099
2.6778	2.1033
2.6764	2.0964
2.6750	2.0894
2.6736	2.0835
2.6722	2.0793
2.6709	2.0779
2.6695	2.0791
2.6681	2.0830
2.6667	2.0889
2.6654	2.0957
2.6640	2.1028
2.6626	2.1084
2.6613	2.1125
2.6599	2.1145
2.6585	2.1145
2.6572	2.1133
2.6558	2.1113
2.6545	2.1099
2.6531	2.1091
2.6517	2.1099
2.6504	2.1118
2.6490	2.1145
2.6477	2.1174
2.6463	2.1196
2.6450	2.1204
2.6436	2.1199
2.6423	2.1179
2.6409	2.1152
2.6396	2.1123
2.6382	2.1099
2.6369	2.1079
2.6356	2.1064
2.6342	2.1055
2.6329	2.1040
2.6315	2.1020
2.6302	2.0991
2.6289	2.0959
2.6275	2.0928
2.6262	2.0906
2.6249	2.0901
2.6236	2.0911
2.6222	2.0940
2.6209	2.0977
2.6196	2.1018
2.6183	2.1052
2.6169	2.1077
2.6156	2.1084
2.6143	2.1081
2.6130	2.1064
2.6117	2.1042
2.6103	2.1020
2.6090	2.0998
2.6077	2.0981
2.6064	2.0969
2.6051	2.0962
2.6038	2.0955
2.6025	2.0950
2.6012	2.0945
2.5999	2.0940
2.5986	2.0940
2.5973	2.0940
2.5960	2.0942
2.5947	2.0940
2.5934	2.0935
2.5921	2.0925
2.5908	2.0906
2.5895	2.0884
2.5882	2.0864
2.5869	2.0850
2.5856	2.0850
2.5843	2.0867
2.5830	2.0898
2.5817	2.0945
2.5805	2.0998
2.5792	2.1050
2.5779	2.1091
2.5766	2.1116
2.5753	2.1123
2.5741	2.1113
2.5728	2.1086
2.5715	2.1052
2.5702	2.1013
2.5690	2.0974
2.5677	2.0940
2.5664	2.0911
2.5651	2.0886
2.5639	2.0867
2.5626	2.0852
2.5613	2.0837
2.5601	2.0828
2.5588	2.0820
2.5575	2.0820
2.5563	2.0830
2.5550	2.0847
2.5538	2.0869
2.5525	2.0894
2.5513	2.0918
2.5500	2.0937
2.5487	2.0947
2.5475	2.0950
2.5462	2.0945
2.5450	2.0940
2.5437	2.0940
2.5425	2.0947
2.5413	2.0969
2.5400	2.0998
2.5388	2.1038
2.5375	2.1074
2.5363	2.1103
2.5350	2.1125
2.5338	2.1135
2.5326	2.1130
2.5313	2.1118
2.5301	2.1096
2.5289	2.1072
2.5276	2.1040
2.5264	2.1008
2.5252	2.0974
2.5239	2.0937
2.5227	2.0898
2.5215	2.0859
2.5202	2.0823
2.5190	2.0786
2.5178	2.0752
2.5166	2.0723
2.5154	2.0698
2.5141	2.0684
2.5129	2.0676
2.5117	2.0681
2.5105	2.0698
2.5093	2.0725
2.5081	2.0759
2.5068	2.0791
2.5056	2.0818
2.5044	2.0837
2.5032	2.0845
2.5020	2.0842
2.5008	2.0830
2.4996	2.0815
2.4984	2.0801
2.4972	2.0791
2.4960	2.0784
2.4948	2.0781
2.4936	2.0776
2.4924	2.0767
2.4912	2.0752
2.4900	2.0732
2.4888	2.0713
2.4876	2.0698
2.4864	2.0698
2.4852	2.0715
2.4840	2.0754
2.4828	2.0810
2.4816	2.0879
2.4805	2.0950
2.4793	2.1008
2.4781	2.1045
2.4769	2.1050
2.4757	2.1020
2.4745	2.0959
2.4734	2.0876
2.4722	2.0786
2.4710	2.0701
2.4698	2.0632
2.4686	2.0588
2.4675	2.0576
2.4663	2.0591
2.4651	2.0623
2.4640	2.0662
2.4628	2.0698
2.4616	2.0720
2.4604	2.0727
2.4593	2.0718
2.4581	2.0698
2.4569	2.0676
2.4558	2.0654
2.4546	2.0642
2.4535	2.0635
2.4523	2.0635
2.4511	2.0635
2.4500	2.0627
2.4488	2.0608
2.4477	2.0579
2.4465	2.0539
2.4454	2.0498
2.4442	2.0464
2.4431	2.0442
2.4419	2.0444
2.4408	2.0466
2.4396	2.0503
2.4385	2.0552
2.4373	2.0596
2.4362	2.0630
2.4350	2.0647
2.4339	2.0647
2.4327	2.0635
2.4316	2.0613
2.4305	2.0593
2.4293	2.0579
2.4282	2.0574
2.4270	2.0574
2.4259	2.0576
2.4248	2.0581
2.4236	2.0579
2.4225	2.0569
2.4214	2.0549
2.4202	2.0522
2.4191	2.0491
2.4180	2.0456
2.4169	2.0425
2.4157	2.0395
2.4146	2.0376
2.4135	2.0369
2.4124	2.0366
2.4112	2.0373
2.4101	2.0386
2.4090	2.0395
2.4079	2.0403
2.4068	2.0408
2.4056	2.0408
2.4045	2.0400
2.4034	2.0391
2.4023	2.0381
2.4012	2.0369
2.4001	2.0356
2.3990	2.0347
2.3979	2.0344
2.3967	2.0354
2.3956	2.0373
2.3945	2.0410
2.3934	2.0456
2.3923	2.0515
2.3912	2.0576
2.3901	2.0635
2.3890	2.0679
2.3879	2.0710
2.3868	2.0718
2.3857	2.0708
2.3846	2.0676
2.3835	2.0627
2.3824	2.0564
2.3813	2.0496
2.3802	2.0427
2.3791	2.0369
2.3781	2.0327
2.3770	2.0312
2.3759	2.0327
2.3748	2.0369
2.3737	2.0432
2.3726	2.0510
2.3715	2.0591
2.3704	2.0662
2.3694	2.0720
2.3683	2.0759
2.3672	2.0774
2.3661	2.0764
2.3650	2.0727
2.3640	2.0671
2.3629	2.0596
2.3618	2.0513
2.3607	2.0430
2.3597	2.0361
2.3586	2.0312
2.3575	2.0295
2.3564	2.0305
2.3554	2.0339
2.3543	2.0386
2.3532	2.0437
2.3522	2.0478
2.3511	2.0505
2.3500	2.0518
2.3490	2.0515
2.3479	2.0508
2.3468	2.0498
2.3458	2.0491
2.3447	2.0486
2.3436	2.0486
2.3426	2.0483
2.3415	2.0478
2.3405	2.0466
2.3394	2.0449
2.3384	2.0432
2.3373	2.0413
2.3363	2.0400
2.3352	2.0398
2.3342	2.0403
2.3331	2.0417
2.3321	2.0437
2.3310	2.0459
2.3300	2.0476
2.3289	2.0486
2.3279	2.0486
2.3268	2.0476
2.3258	2.0464
2.3247	2.0449
2.3237	2.0442
2.3226	2.0442
2.3216	2.0452
2.3206	2.0471
2.3195	2.0493
2.3185	2.0515
2.3175	2.0535
2.3164	2.0549
2.3154	2.0564
2.3144	2.0574
2.3133	2.0581
2.3123	2.0586
2.3113	2.0586
2.3102	2.0583
2.3092	2.0576
2.3082	2.0571
2.3071	2.0566
2.3061	2.0564
2.3051	2.0566
2.3041	2.0569
2.3030	2.0566
2.3020	2.0554
2.3010	2.0530
2.3000	2.0493
2.2990	2.0449
2.2979	2.0400
2.2969	2.0352
2.2959	2.0310
2.2949	2.0276
2.2939	2.0249
2.2929	2.0232
2.2918	2.0227
2.2908	2.0232
2.2898	2.0247
2.2888	2.0273
2.2878	2.0308
2.2868	2.0342
2.2858	2.0371
2.2848	2.0388
2.2838	2.0393
2.2828	2.0386
2.2818	2.0376
2.2808	2.0369
2.2798	2.0373
2.2787	2.0395
2.2777	2.0430
2.2767	2.0471
2.2757	2.0505
2.2747	2.0522
2.2738	2.0518
2.2728	2.0486
2.2718	2.0437
2.2708	2.0386
2.2698	2.0342
2.2688	2.0315
2.2678	2.0310
2.2668	2.0322
2.2658	2.0344
2.2648	2.0366
2.2638	2.0386
2.2628	2.0395
2.2618	2.0403
2.2609	2.0415
2.2599	2.0435
2.2589	2.0466
2.2579	2.0508
2.2569	2.0554
2.2559	2.0598
2.2550	2.0630
2.2540	2.0649
2.2530	2.0649
2.2520	2.0635
2.2510	2.0613
2.2501	2.0591
2.2491	2.0571
2.2481	2.0561
2.2471	2.0564
2.2462	2.0571
2.2452	2.0583
2.2442	2.0593
2.2433	2.0598
2.2423	2.0598
2.2413	2.0591
2.2403	2.0581
2.2394	2.0569
2.2384	2.0559
2.2374	2.0552
2.2365	2.0544
2.2355	2.0537
2.2345	2.0527
2.2336	2.0515
2.2326	2.0500
2.2317	2.0486
2.2307	2.0474
2.2297	2.0464
2.2288	2.0459
2.2278	2.0464
2.2269	2.0474
2.2259	2.0493
2.2250	2.0522
2.2240	2.0557
2.2231	2.0596
2.2221	2.0632
2.2211	2.0662
2.2202	2.0681
2.2192	2.0686
2.2183	2.0679
2.2173	2.0664
2.2164	2.0647
2.2155	2.0632
2.2145	2.0627
2.2136	2.0632
2.2126	2.0644
2.2117	2.0657
2.2107	2.0662
2.2098	2.0654
2.2088	2.0630
2.2079	2.0591
2.2070	2.0542
2.2060	2.0488
2.2051	2.0439
2.2041	2.0400
2.2032	2.0378
2.2023	2.0376
2.2013	2.0398
2.2004	2.0439
2.1995	2.0498
2.1985	2.0564
2.1976	2.0632
2.1967	2.0693
2.1957	2.0745
2.1948	2.0781
2.1939	2.0801
2.1930	2.0801
2.1920	2.0786
2.1911	2.0754
2.1902	2.0710
2.1893	2.0659
2.1883	2.0603
2.1874	2.0549
2.1865	2.0503
2.1856	2.0469
2.1846	2.0444
2.1837	2.0432
2.1828	2.0425
2.1819	2.0422
2.1810	2.0417
2.1800	2.0413
2.1791	2.0403
2.1782	2.0393
2.1773	2.0386
2.1764	2.0381
2.1755	2.0378
2.1746	2.0378
2.1736	2.0376
2.1727	2.0373
2.1718	2.0366
2.1709	2.0364
2.1700	2.0366
2.1691	2.0381
2.1682	2.0410
2.1673	2.0456
2.1664	2.0518
2.1655	2.0588
2.1646	2.0659
2.1637	2.0730
2.1628	2.0789
2.1619	2.0837
2.1610	2.0864
2.1601	2.0872
2.1592	2.0857
2.1583	2.0820
2.1574	2.0762
2.1565	2.0688
2.1556	2.0605
2.1547	2.0522
2.1538	2.0444
2.1529	2.0381
2.1520	2.0332
2.1511	2.0308
2.1502	2.0303
2.1493	2.0325
2.1484	2.0369
2.1475	2.0432
2.1466	2.0505
2.1458	2.0579
2.1449	2.0640
2.1440	2.0674
2.1431	2.0671
2.1422	2.0630
2.1413	2.0554
2.1404	2.0456
2.1396	2.0354
2.1387	2.0266
2.1378	2.0205
2.1369	2.0181
2.1360	2.0195
2.1352	2.0244
2.1343	2.0315
2.1334	2.0400
2.1325	2.0493
2.1316	2.0586
2.1308	2.0676
2.1299	2.0757
2.1290	2.0828
2.1281	2.0881
2.1273	2.0915
2.1264	2.0928
2.1255	2.0913
2.1247	2.0876
2.1238	2.0823
2.1229	2.0762
2.1220	2.0710
2.1212	2.0671
2.1203	2.0659
2.1194	2.0666
2.1186	2.0691
2.1177	2.0720
2.1168	2.0747
2.1160	2.0759
2.1151	2.0757
2.1143	2.0735
2.1134	2.0708
2.1125	2.0681
2.1117	2.0666
2.1108	2.0669
2.1100	2.0688
2.1091	2.0720
2.1082	2.0759
2.1074	2.0793
2.1065	2.0820
2.1057	2.0835
2.1048	2.0832
2.1040	2.0815
2.1031	2.0784
2.1023	2.0735
2.1014	2.0676
2.1005	2.0605
2.0997	2.0532
2.0988	2.0464
2.0980	2.0413
2.0971	2.0386
2.0963	2.0391
2.0955	2.0425
2.0946	2.0488
2.0938	2.0571
2.0929	2.0662
2.0921	2.0752
2.0912	2.0832
2.0904	2.0906
2.0895	2.0964
2.0887	2.1008
2.0879	2.1042
2.0870	2.1055
2.0862	2.1040
2.0853	2.1008
2.0845	2.0911
2.0837	2.0825
2.0828	2.0701
2.0820	2.0442
2.0812	2.0496
2.0803	2.0102
2.0795	1.9846
