Name: Vesuvianite Ca_10(Mg,Fe^2+)_2Al_4(Si_2O_7)_2(SiO_4)_5(OH,F)_4
Type: Mineral
Class: Silicates
Subclass: Sorosilicate
Particle Size: 45-125um
Sample No.: SS-3A
Owner: JPL
Wavelength range: IR
Origin: USA, California, Riverside County, Crestmore Quarry
Collected by Burminco
Description: 





Measurement: Hemispherical reflectance
First Column: X
Second Column: Y
X Units:  Wavelength (micrometers)
Y Units:  Reflectance (percent)
First X Value: 15.3853
Last X Value: 2.00032
Number of X Values: 2256
Additional information: ss03aa.txt
 
15.3853	1.98396
15.3397	2.15378
15.2945	2.09581
15.2495	2.07684
15.2048	1.99224
15.1603	2.10622
15.1161	2.25699
15.0722	2.24669
15.0285	2.23641
14.9851	2.15225
14.9419	2.14348
14.8989	2.15644
14.8563	2.18801
14.8138	2.37501
14.7716	2.40613
14.7296	2.39579
14.6879	2.44788
14.6464	2.61627
14.6052	2.57545
14.5641	2.36212
14.5233	2.32828
14.4828	2.45274
14.4424	2.26259
14.4023	2.1837
14.3624	2.27541
14.3227	2.32436
14.2833	2.28774
14.244	2.325
14.205	2.40775
14.1662	2.38093
14.1276	2.3203
14.0892	2.31266
14.051	2.42407
14.0131	2.50385
13.9753	2.35537
13.9377	2.3239
13.9004	2.46986
13.8632	2.73852
13.8262	2.97253
13.7895	3.17307
13.7529	3.45863
13.7165	3.69212
13.6803	3.68837
13.6443	3.64445
13.6085	3.73675
13.5729	3.95402
13.5374	3.96007
13.5022	4.03256
13.4671	4.09172
13.4322	4.12378
13.3975	4.1387
13.363	4.24435
13.3286	4.37809
13.2944	4.61146
13.2604	4.65451
13.2266	4.37292
13.193	4.466
13.1595	4.69405
13.1262	4.6843
13.093	4.72708
13.06	4.89585
13.0272	5.05416
12.9946	5.17004
12.9621	5.14587
12.9298	5.14458
12.8976	5.27705
12.8656	5.54616
12.8337	5.73666
12.8021	5.77302
12.7705	5.81403
12.7391	5.94666
12.7079	6.12699
12.6769	6.19051
12.6459	6.34144
12.6152	6.32504
12.5845	6.23293
12.5541	6.20432
12.5238	6.20589
12.4936	6.28417
12.4635	6.25358
12.4337	6.17852
12.4039	6.11523
12.3743	6.09383
12.3448	5.99374
12.3155	5.96933
12.2863	6.0081
12.2573	6.0636
12.2284	6.18066
12.1996	6.36399
12.171	6.53539
12.1425	6.72481
12.1141	6.72015
12.0859	6.68793
12.0578	6.86476
12.0298	7.19412
12.0019	7.38515
11.9742	7.31327
11.9466	7.41637
11.9192	7.70362
11.8918	7.69564
11.8646	7.57254
11.8375	7.59296
11.8106	7.55977
11.7837	7.58566
11.757	7.82294
11.7304	8.04811
11.7039	8.07421
11.6776	8.03682
11.6513	8.14255
11.6252	8.12979
11.5992	8.04946
11.5733	8.08823
11.5475	8.05962
11.5219	8.05528
11.4963	8.21426
11.4709	8.43741
11.4455	8.5957
11.4203	8.84572
11.3952	9.06375
11.3702	9.35226
11.3454	9.51673
11.3206	9.52944
11.2959	9.53321
11.2714	9.52187
11.2469	9.40773
11.2226	9.09471
11.1983	8.88194
11.1742	8.80361
11.1502	8.83655
11.1263	8.91791
11.1024	8.90628
11.0787	8.76949
11.0551	8.77489
11.0316	9.03667
11.0081	9.38457
10.9848	9.55388
10.9616	9.84013
10.9385	10.2062
10.9154	10.4191
10.8925	10.3324
10.8697	10.2171
10.8469	9.97674
10.8243	9.73467
10.8017	9.54548
10.7793	9.3868
10.7569	9.0851
10.7346	8.80285
10.7125	8.69005
10.6904	8.58329
10.6684	8.44747
10.6465	8.4659
10.6247	8.49148
10.6029	8.53104
10.5813	8.69378
10.5597	8.79474
10.5383	9.03547
10.5169	9.30364
10.4956	9.44944
10.4744	9.7129
10.4533	9.986
10.4323	10.2431
10.4113	10.3752
10.3904	10.4608
10.3697	10.558
10.349	10.5643
10.3284	10.6182
10.3078	10.5839
10.2874	10.505
10.267	10.4116
10.2467	10.267
10.2265	9.98524
10.2064	9.73671
10.1863	9.56789
10.1663	9.45134
10.1464	9.27873
10.1266	9.02098
10.1069	8.88329
10.0872	8.85036
10.0676	8.7208
10.0481	8.77714
10.0287	9.11215
10.0093	9.42999
9.99005	9.82594
9.97084	10.5071
9.95169	11.2868
9.93263	12.0888
9.91364	12.9968
9.89472	13.8069
9.87587	14.5776
9.8571	15.438
9.83839	16.3238
9.81976	17.3025
9.80119	18.0514
9.78271	18.4581
9.76428	18.8925
9.74592	19.2528
9.72764	19.3697
9.70943	19.4982
9.69128	19.4179
9.6732	19.2796
9.65518	19.0161
9.63724	18.6135
9.61935	18.2328
9.60155	17.774
9.5838	16.9696
9.56611	16.052
9.5485	15.219
9.53094	14.2327
9.51345	13.2576
9.49604	12.1957
9.47867	11.0228
9.46137	9.79846
9.44414	8.50573
9.42697	7.24856
9.40986	6.22544
9.39281	5.24787
9.37583	4.37647
9.35891	3.82322
9.34204	3.35082
9.32524	3.08596
9.3085	3.04877
9.29182	2.8104
9.27519	2.47478
9.25863	2.25771
9.24213	2.00194
9.22568	1.84011
9.2093	1.88
9.19297	1.92015
9.17669	1.9165
9.16048	1.89614
9.14433	1.92581
9.12823	1.95841
9.11218	1.80711
9.0962	1.68738
9.08027	1.6287
9.06439	1.6452
9.04858	1.5424
9.03281	1.49615
9.0171	1.57295
9.00145	1.53722
8.98585	1.539
8.9703	1.43813
8.9548	1.41057
8.93937	1.56131
8.92398	1.72758
8.90865	1.63282
8.89337	1.50526
8.87814	1.46861
8.86296	1.52095
8.84784	1.58276
8.83277	1.56482
8.81774	1.45192
8.80277	1.36488
8.78786	1.39574
8.77298	1.27222
8.75816	1.22577
8.7434	1.2743
8.72868	1.22657
8.714	1.17983
8.69938	1.16847
8.68481	1.26621
8.67029	1.34799
8.65581	1.46395
8.64139	1.55026
8.62701	1.37842
8.61268	1.27721
8.5984	1.2662
8.58416	1.33217
8.56997	1.47009
8.55583	1.50476
8.54174	1.5273
8.52769	1.64802
8.51368	1.79166
8.49973	1.74707
8.48582	1.6117
8.47195	1.76456
8.45813	1.85134
8.44436	1.85803
8.43062	1.8773
8.41693	1.96546
8.4033	2.16744
8.3897	2.33973
8.37614	2.37925
8.36264	2.40408
8.34917	2.50071
8.33574	2.57362
8.32236	2.64955
8.30903	2.73109
8.29573	2.78809
8.28248	2.73609
8.26927	2.75668
8.2561	2.86138
8.24298	3.06971
8.2299	3.14304
8.21685	3.09644
8.20385	3.14467
8.19089	3.26424
8.17797	3.27334
8.16509	3.29002
8.15225	3.30907
8.13946	3.38234
8.1267	3.45607
8.11398	3.4426
8.10131	3.48104
8.08867	3.50844
8.07606	3.52854
8.0635	3.62098
8.05099	3.63024
8.0385	3.64852
8.02606	3.78113
8.01366	3.90265
8.00129	3.99217
7.98896	3.9965
7.97667	3.96565
7.96442	3.96897
7.9522	4.0328
7.94002	4.05678
7.92788	3.99372
7.91578	3.9755
7.90371	4.04881
7.89168	4.014
7.87969	3.85809
7.86773	3.85367
7.85581	4.07703
7.84392	4.25268
7.83207	4.3058
7.82026	4.3518
7.80849	4.37903
7.79674	4.44921
7.78503	4.48908
7.77337	4.50025
7.76173	4.55465
7.75012	4.65718
7.73856	4.79983
7.72703	4.84546
7.71553	4.74511
7.70406	4.73033
7.69263	4.72648
7.68123	4.70514
7.66987	4.82842
7.65855	4.97812
7.64725	4.91651
7.63598	4.93192
7.62475	5.07552
7.61356	5.03846
7.60239	5.0157
7.59126	5.06581
7.58017	5.18361
7.5691	5.23525
7.55806	5.23164
7.54707	5.38305
7.5361	5.46956
7.52516	5.37105
7.51425	5.42721
7.50338	5.51074
7.49253	5.53675
7.48172	5.6182
7.47094	5.71918
7.46019	5.66983
7.44947	5.59237
7.43879	5.55617
7.42813	5.51939
7.4175	5.4534
7.4069	5.32202
7.39634	5.26298
7.3858	5.26361
7.37529	5.16539
7.36482	5.13542
7.35437	5.13206
7.34396	5.03126
7.33357	5.08193
7.32321	5.13065
7.31288	5.13685
7.30258	5.26451
7.29231	5.43983
7.28207	5.56188
7.27185	5.68901
7.26167	5.7985
7.25152	6.04886
7.24139	6.24983
7.23129	6.39327
7.22122	6.61092
7.21117	6.82484
7.20116	7.00786
7.19117	7.27818
7.18121	7.44964
7.17128	7.62265
7.16137	7.67546
7.1515	7.68509
7.14164	7.74499
7.13182	7.79318
7.12203	7.90188
7.11225	8.09401
7.10251	8.31948
7.0928	8.51902
7.08311	8.59278
7.07344	8.70659
7.06381	8.73566
7.0542	8.86924
7.04461	9.03599
7.03506	9.05676
7.02552	9.1671
7.01601	9.23866
7.00653	9.259
6.99708	9.46197
6.98765	9.74854
6.97824	9.85256
6.96886	9.99669
6.95951	10.153
6.95018	10.1265
6.94087	10.074
6.9316	10.0808
6.92234	10.1409
6.91311	10.1626
6.90391	10.0063
6.89473	9.6948
6.88557	9.32361
6.87644	8.86148
6.86733	8.56412
6.85824	7.98993
6.84918	7.29341
6.84015	6.90763
6.83114	6.8643
6.82215	6.84002
6.81319	6.7798
6.80424	6.88483
6.79532	7.08414
6.78643	7.23614
6.77756	7.4337
6.76871	7.65186
6.75989	7.87323
6.75109	8.28531
6.74231	8.85428
6.73355	9.47447
6.72482	10.1472
6.71611	10.7853
6.70742	11.3695
6.69875	11.8593
6.69011	12.4237
6.68149	13.0705
6.67289	13.3745
6.66431	13.4074
6.65576	13.5284
6.64722	14.0634
6.63871	14.7408
6.63022	14.663
6.62175	14.3506
6.61331	14.2418
6.60488	14.2146
6.59648	14.2852
6.5881	14.2803
6.57974	14.2873
6.5714	14.097
6.56308	13.4422
6.55478	12.9356
6.54651	12.4436
6.53825	11.9073
6.53001	11.3939
6.5218	11.0395
6.51361	10.529
6.50544	10.152
6.49729	10.1161
6.48915	9.77167
6.48104	9.16525
6.47295	8.63553
6.46488	8.18251
6.45683	7.70962
6.4488	7.19259
6.44079	6.68797
6.4328	6.17839
6.42482	5.78974
6.41687	5.63161
6.40894	5.27588
6.40103	4.84413
6.39314	4.71664
6.38526	4.8214
6.37741	5.09053
6.36957	5.53941
6.36176	6.08348
6.35396	6.72485
6.34618	7.53779
6.33843	8.11694
6.33069	8.61707
6.32297	9.22534
6.31527	9.73434
6.30758	10.2675
6.29992	10.7013
6.29227	11.0813
6.28465	11.3815
6.27704	11.5398
6.26945	11.6376
6.26188	11.7265
6.25432	11.7422
6.24679	11.7191
6.23927	11.762
6.23177	11.7074
6.22429	11.6495
6.21683	11.5727
6.20938	11.4339
6.20195	11.3205
6.19454	11.3437
6.18715	11.5706
6.17978	11.4555
6.17242	11.1382
6.16508	11.0165
6.15776	10.9287
6.15045	10.7244
6.14317	10.5902
6.1359	10.4915
6.12864	10.4416
6.12141	10.5244
6.11419	10.6148
6.10699	10.3989
6.0998	10.2242
6.09263	10.1237
6.08549	10.1276
6.07835	10.2776
6.07123	10.3034
6.06413	10.1687
6.05705	10.3588
6.04998	10.8156
6.04293	10.519
6.0359	10.0923
6.02888	10.047
6.02187	10.0837
6.01489	10.144
6.00792	10.13
6.00096	10.2414
5.99403	10.4595
5.98711	10.5534
5.9802	10.4902
5.97331	10.4986
5.96644	10.5067
5.95958	10.4827
5.95274	10.5756
5.94591	10.7655
5.9391	11.1205
5.9323	11.0514
5.92552	10.7734
5.91876	10.7803
5.91201	10.6833
5.90528	10.7373
5.89856	11.1084
5.89186	11.0646
5.88517	11.0352
5.8785	11.031
5.87184	10.7441
5.8652	10.7411
5.85857	10.6426
5.85196	10.4467
5.84536	10.3554
5.83878	10.3802
5.83221	10.4865
5.82566	10.6851
5.81912	10.6386
5.81259	10.3112
5.80608	10.1516
5.79959	10.1067
5.79311	9.99605
5.78665	9.88734
5.78019	9.82358
5.77376	9.83853
5.76734	10.0112
5.76093	9.74472
5.75453	9.52986
5.74815	9.53588
5.74179	9.37769
5.73543	9.27628
5.7291	9.19799
5.72277	9.19208
5.71646	9.21186
5.71017	9.23792
5.70389	9.07068
5.69762	8.94252
5.69136	8.89229
5.68513	8.80803
5.6789	8.83826
5.67268	8.86043
5.66648	8.75384
5.6603	8.68095
5.65413	8.71518
5.64797	8.79423
5.64182	8.78272
5.63569	8.58085
5.62957	8.46
5.62347	8.33487
5.61737	8.23225
5.61129	8.12189
5.60522	7.87423
5.59917	7.65678
5.59313	7.46243
5.5871	7.28581
5.58109	7.27097
5.57509	7.21673
5.5691	7.06811
5.56312	7.05744
5.55716	7.17031
5.55121	7.30121
5.54528	7.44494
5.53935	7.70528
5.53344	7.88412
5.52754	8.10644
5.52166	8.31654
5.51578	8.47625
5.50992	8.61413
5.50407	8.74267
5.49823	8.77323
5.49241	8.9059
5.4866	9.07926
5.4808	9.11136
5.47501	9.10401
5.46923	9.25496
5.46347	9.44633
5.45772	9.52577
5.45198	9.56035
5.44625	9.61297
5.44054	9.69634
5.43484	9.72464
5.42914	9.88045
5.42347	10.0775
5.4178	10.0916
5.41214	10.068
5.4065	10.0968
5.40087	10.1923
5.39525	10.2357
5.38964	10.2766
5.38404	10.3436
5.37846	10.3494
5.37288	10.362
5.36732	10.4313
5.36177	10.5874
5.35623	10.7177
5.35071	10.804
5.34519	10.8104
5.33968	10.8694
5.33419	10.9885
5.32871	11.0388
5.32324	11.0794
5.31778	11.1767
5.31233	11.3083
5.30689	11.4298
5.30147	11.4993
5.29605	11.5229
5.29065	11.6819
5.28525	11.8057
5.27987	11.8723
5.2745	11.9576
5.26914	12.0957
5.26379	12.2614
5.25845	12.4299
5.25312	12.519
5.24781	12.6558
5.2425	12.8157
5.23721	12.9818
5.23192	13.1333
5.22665	13.2729
5.22138	13.3767
5.21613	13.5906
5.21089	13.7934
5.20566	13.9034
5.20044	14.0603
5.19522	14.1631
5.19002	14.2978
5.18483	14.479
5.17965	14.6196
5.17448	14.8265
5.16933	14.9875
5.16418	15.0859
5.15904	15.2363
5.15391	15.4899
5.14879	15.73
5.14368	15.9286
5.13859	15.9925
5.1335	16.1108
5.12842	16.3965
5.12335	16.5985
5.1183	16.6919
5.11325	16.8108
5.10821	16.8933
5.10318	16.943
5.09817	17.0789
5.09316	17.3407
5.08816	17.5648
5.08317	17.8333
5.07819	18.1234
5.07322	18.3126
5.06826	18.4743
5.06331	18.6579
5.05837	18.8602
5.05344	19.0806
5.04852	19.3193
5.04361	19.5371
5.03871	19.6775
5.03382	19.8294
5.02894	20.0232
5.02406	20.3043
5.0192	20.5395
5.01435	20.6894
5.0095	20.8611
5.00467	21.0387
4.99984	21.2143
4.99502	21.3957
4.99021	21.5457
4.98542	21.7411
4.98063	21.9368
4.97585	22.0752
4.97108	22.1726
4.96632	22.4325
4.96156	22.6707
4.95682	22.8505
4.95209	23.0836
4.94736	23.2882
4.94264	23.4297
4.93794	23.6212
4.93324	23.8056
4.92855	23.927
4.92387	24.1134
4.9192	24.3211
4.91453	24.5058
4.90988	24.6478
4.90524	24.7552
4.9006	24.9434
4.89597	25.1225
4.89135	25.2754
4.88674	25.4451
4.88214	25.6352
4.87755	25.7896
4.87296	25.9204
4.86839	26.0681
4.86382	26.2429
4.85926	26.4235
4.85471	26.5391
4.85017	26.6108
4.84564	26.8012
4.84111	27.0341
4.8366	27.1765
4.83209	27.2745
4.82759	27.3901
4.8231	27.4758
4.81862	27.6209
4.81415	27.7769
4.80968	27.9593
4.80522	28.1318
4.80077	28.2177
4.79633	28.3342
4.7919	28.4867
4.78747	28.5996
4.78306	28.6878
4.77865	28.7063
4.77425	28.7909
4.76986	28.9136
4.76547	29.0192
4.7611	29.111
4.75673	29.1789
4.75237	29.2406
4.74802	29.3417
4.74367	29.4028
4.73934	29.4175
4.73501	29.3696
4.73069	29.4116
4.72638	29.4183
4.72207	29.4254
4.71777	29.3369
4.71348	29.1884
4.7092	28.9542
4.70493	28.8294
4.70066	28.7906
4.69641	28.7267
4.69216	28.6156
4.68791	28.5571
4.68368	28.5477
4.67945	28.4993
4.67523	28.4554
4.67102	28.4986
4.66682	28.575
4.66262	28.6873
4.65843	28.8185
4.65425	28.944
4.65007	29.0847
4.64591	29.2181
4.64175	29.4142
4.6376	29.6605
4.63345	29.8464
4.62932	29.9687
4.62519	30.0741
4.62106	30.1109
4.61695	30.1811
4.61284	30.3599
4.60874	30.4988
4.60465	30.533
4.60056	30.5665
4.59648	30.6162
4.59241	30.6342
4.58835	30.6879
4.58429	30.7075
4.58024	30.7072
4.5762	30.739
4.57216	30.8112
4.56814	30.8679
4.56411	30.8204
4.5601	30.7538
4.55609	30.8124
4.55209	30.9455
4.5481	31.0297
4.54411	31.084
4.54013	31.029
4.53616	30.9206
4.5322	30.972
4.52824	31.0758
4.52429	31.1083
4.52034	31.1588
4.51641	31.1958
4.51247	31.1925
4.50855	31.2277
4.50463	31.2257
4.50072	31.3153
4.49682	31.4536
4.49292	31.4804
4.48903	31.5239
4.48515	31.6392
4.48127	31.6871
4.4774	31.7073
4.47354	31.7806
4.46968	31.8526
4.46584	31.9415
4.46199	32.0306
4.45815	32.0464
4.45432	32.066
4.4505	32.1341
4.44668	32.1765
4.44287	32.2269
4.43907	32.2935
4.43527	32.3558
4.43148	32.3696
4.4277	32.4099
4.42392	32.5027
4.42015	32.5305
4.41638	32.5665
4.41262	32.5978
4.40887	32.5947
4.40513	32.6125
4.40139	32.7466
4.39765	32.7825
4.39393	32.7428
4.39021	32.7608
4.38649	32.7854
4.38278	32.8437
4.37908	32.9177
4.37539	32.9347
4.3717	32.906
4.36801	32.916
4.36434	32.9708
4.36067	32.9404
4.357	32.9223
4.35335	32.9525
4.34969	32.9352
4.34605	32.9105
4.34241	32.9588
4.33877	32.9804
4.33514	32.9364
4.33152	32.9303
4.32791	32.9658
4.3243	32.981
4.32069	32.9586
4.3171	32.9155
4.31351	32.9207
4.30992	32.9892
4.30634	32.9783
4.30277	32.9884
4.2992	32.9779
4.29564	32.9346
4.29208	32.9273
4.28853	33.0197
4.28499	33.0992
4.28145	33.049
4.27792	32.9869
4.27439	32.9723
4.27087	33.0521
4.26735	33.0715
4.26384	33.1169
4.26034	33.1505
4.25684	33.0922
4.25335	33.047
4.24986	32.967
4.24638	32.9457
4.24291	33.022
4.23944	32.9635
4.23598	32.8696
4.23252	32.8643
4.22906	32.9091
4.22562	32.9374
4.22218	32.9239
4.21874	32.964
4.21531	33.0224
4.21189	32.9923
4.20847	32.946
4.20506	32.9611
4.20165	33.0078
4.19825	33.0224
4.19485	33.0045
4.19146	32.9693
4.18807	32.9136
4.18469	32.8757
4.18132	32.8737
4.17795	32.8906
4.17458	32.8632
4.17123	32.7757
4.16787	32.8026
4.16453	32.7837
4.16118	32.7632
4.15785	32.7231
4.15451	32.6145
4.15119	32.5884
4.14787	32.5631
4.14455	32.5092
4.14124	32.4441
4.13794	32.3548
4.13464	32.3719
4.13134	32.3913
4.12805	32.2955
4.12477	32.2512
4.12149	32.2704
4.11822	32.1695
4.11495	32.0081
4.11168	31.9352
4.10843	31.8609
4.10517	31.7538
4.10192	31.6888
4.09868	31.6201
4.09545	31.5926
4.09221	31.5207
4.08899	31.4481
4.08576	31.3805
4.08255	31.2977
4.07933	31.1817
4.07613	31.0662
4.07292	30.929
4.06973	30.8227
4.06654	30.781
4.06335	30.6658
4.06017	30.517
4.05699	30.4163
4.05382	30.2294
4.05065	29.9195
4.04749	29.5617
4.04433	29.1185
4.04118	28.7255
4.03803	28.4129
4.03489	28.0832
4.03175	27.7157
4.02862	27.3891
4.02549	27.0766
4.02237	26.8607
4.01925	26.67
4.01614	26.3169
4.01303	25.9002
4.00993	25.4046
4.00683	24.9833
4.00373	24.7128
4.00064	24.4042
3.99756	24.2106
3.99448	23.9996
3.9914	23.7834
3.98833	23.6446
3.98527	23.5579
3.98221	23.4854
3.97915	23.4358
3.9761	23.3745
3.97305	23.4064
3.97001	23.4938
3.96697	23.5128
3.96394	23.5267
3.96091	23.6318
3.95789	23.8027
3.95487	23.8494
3.95186	24.032
3.94885	24.3415
3.94584	24.4992
3.94284	24.7068
3.93984	24.9307
3.93685	25.0051
3.93386	24.9244
3.93088	24.7864
3.9279	24.751
3.92493	24.8001
3.92196	24.8164
3.919	24.8245
3.91604	24.737
3.91308	24.6936
3.91013	24.6488
3.90718	24.5429
3.90424	24.4365
3.9013	24.4881
3.89837	24.4421
3.89544	24.3997
3.89252	24.5046
3.8896	24.4832
3.88668	24.4421
3.88377	24.491
3.88086	24.5077
3.87796	24.5567
3.87506	24.5758
3.87217	24.6136
3.86928	24.6355
3.86639	24.6802
3.86351	24.8164
3.86064	24.8069
3.85776	24.7798
3.8549	24.8724
3.85203	24.8558
3.84917	24.7967
3.84631	24.8502
3.84346	24.8692
3.84062	24.8925
3.83777	24.9476
3.83494	25.0597
3.8321	25.2689
3.82927	25.4323
3.82644	25.5703
3.82362	25.7357
3.82081	25.8993
3.81799	26.0897
3.81518	26.2001
3.81238	26.294
3.80958	26.4763
3.80678	26.6716
3.80399	26.879
3.8012	27.069
3.79841	27.1777
3.79563	27.3219
3.79286	27.4609
3.79008	27.5019
3.78731	27.5523
3.78455	27.6296
3.78179	27.6364
3.77903	27.6092
3.77628	27.6359
3.77353	27.5744
3.77079	27.4798
3.76805	27.4228
3.76531	27.3142
3.76258	27.1703
3.75985	27.1022
3.75713	27.0671
3.7544	27.0323
3.75169	26.9322
3.74898	26.8726
3.74627	26.8914
3.74356	26.8887
3.74086	26.9114
3.73816	26.9251
3.73547	26.8737
3.73278	26.8341
3.7301	26.7507
3.72741	26.7512
3.72474	26.6782
3.72206	26.5935
3.71939	26.5081
3.71673	26.4609
3.71406	26.398
3.71141	26.2994
3.70875	26.2824
3.7061	26.1885
3.70345	26.0187
3.70081	25.9583
3.69817	25.8961
3.69553	25.8615
3.6929	25.7566
3.69027	25.6886
3.68765	25.5935
3.68503	25.4349
3.68241	25.2791
3.6798	25.1759
3.67719	25.1172
3.67458	25.0867
3.67198	25.0089
3.66938	24.8968
3.66678	24.7681
3.66419	24.6344
3.66161	24.4988
3.65902	24.4499
3.65644	24.3329
3.65387	24.1284
3.65129	24.0263
3.64872	23.9354
3.64616	23.8869
3.64359	23.8455
3.64103	23.7264
3.63848	23.5869
3.63593	23.4684
3.63338	23.3086
3.63084	23.1526
3.6283	23.0289
3.62576	22.9085
3.62322	22.8476
3.62069	22.7866
3.61817	22.6149
3.61564	22.4036
3.61312	22.3325
3.61061	22.2075
3.6081	22.0381
3.60559	21.9873
3.60308	21.9067
3.60058	21.7651
3.59808	21.6134
3.59558	21.4663
3.59309	21.3101
3.59061	21.201
3.58812	21.0365
3.58564	20.829
3.58316	20.625
3.58069	20.4556
3.57822	20.3524
3.57575	20.1837
3.57328	20.0058
3.57082	19.902
3.56836	19.842
3.56591	19.7572
3.56346	19.5542
3.56101	19.3493
3.55857	19.2368
3.55613	19.1008
3.55369	18.9648
3.55126	18.8416
3.54883	18.7241
3.5464	18.5469
3.54397	18.3156
3.54155	18.0691
3.53914	17.9226
3.53672	17.7813
3.53431	17.5453
3.5319	17.2277
3.5295	16.8685
3.5271	16.51
3.5247	16.2372
3.52231	15.8854
3.51991	15.5243
3.51753	15.2128
3.51514	14.9704
3.51276	14.8133
3.51038	14.6756
3.50801	14.5618
3.50563	14.3727
3.50327	14.1768
3.5009	14.1117
3.49854	13.9735
3.49618	13.7748
3.49382	13.5506
3.49147	13.3027
3.48912	13.259
3.48677	13.2623
3.48443	13.1377
3.48209	12.9463
3.47975	12.8065
3.47742	12.6835
3.47509	12.6127
3.47276	12.6729
3.47044	12.7315
3.46812	12.7649
3.4658	12.8054
3.46348	12.8703
3.46117	12.9482
3.45886	12.9031
3.45656	12.7865
3.45425	12.6612
3.45195	12.6217
3.44966	12.5903
3.44736	12.482
3.44507	12.3653
3.44279	12.3381
3.4405	12.2741
3.43822	12.1923
3.43594	12.0427
3.43367	11.9419
3.43139	11.9111
3.42912	11.8638
3.42686	11.8079
3.42459	11.7393
3.42233	11.6552
3.42007	11.5388
3.41782	11.4055
3.41557	11.2927
3.41332	11.2667
3.41108	11.2256
3.40883	11.1326
3.40659	11.0749
3.40435	10.8567
3.40212	10.7017
3.39989	10.6491
3.39766	10.6471
3.39544	10.577
3.39322	10.4247
3.391	10.2716
3.38878	10.1848
3.38657	10.1705
3.38436	10.1364
3.38215	10.0221
3.37994	9.93761
3.37774	9.84678
3.37554	9.68719
3.37335	9.62709
3.37115	9.54297
3.36896	9.42387
3.36678	9.37124
3.36459	9.27936
3.36241	9.14234
3.36023	9.00856
3.35805	8.9647
3.35588	8.88649
3.35371	8.763
3.35154	8.60103
3.34938	8.49435
3.34721	8.43638
3.34505	8.53573
3.3429	8.59759
3.34074	8.75183
3.33859	8.94385
3.33644	9.05039
3.3343	9.06338
3.33215	8.9835
3.33001	8.91931
3.32788	8.89374
3.32574	8.83044
3.32361	8.72737
3.32148	8.69119
3.31936	8.63506
3.31723	8.68453
3.31511	8.74941
3.31299	8.70216
3.31088	8.55532
3.30876	8.35546
3.30665	8.13597
3.30455	8.15859
3.30244	8.15309
3.30034	8.08383
3.29824	8.01255
3.29614	7.94131
3.29405	7.81412
3.29196	7.67974
3.28987	7.68696
3.28778	7.68876
3.2857	7.62054
3.28362	7.59073
3.28154	7.51491
3.27946	7.44776
3.27739	7.37811
3.27532	7.35443
3.27325	7.30928
3.27119	7.23132
3.26913	7.04217
3.26707	7.03247
3.26501	6.98123
3.26295	6.92413
3.2609	6.91313
3.25885	6.89277
3.2568	6.74616
3.25476	6.64164
3.25272	6.67922
3.25068	6.61178
3.24864	6.52565
3.24661	6.45644
3.24458	6.47852
3.24255	6.37972
3.24052	6.32649
3.2385	6.37343
3.23648	6.33799
3.23446	6.2521
3.23244	6.28929
3.23043	6.28433
3.22841	6.10484
3.2264	5.98501
3.2244	6.01481
3.22239	6.01824
3.22039	6.01098
3.21839	5.97485
3.2164	5.87533
3.2144	5.85735
3.21241	5.81331
3.21042	5.75185
3.20844	5.76669
3.20645	5.71537
3.20447	5.66829
3.20249	5.70692
3.20051	5.68912
3.19854	5.57763
3.19657	5.50657
3.1946	5.571
3.19263	5.6483
3.19067	5.51374
3.1887	5.44277
3.18674	5.35986
3.18479	5.23934
3.18283	5.21398
3.18088	5.22183
3.17893	5.29041
3.17698	5.30671
3.17504	5.27731
3.17309	5.24015
3.17115	5.24003
3.16921	5.2173
3.16728	5.16594
3.16534	5.0851
3.16341	4.92806
3.16148	4.86786
3.15956	5.03879
3.15763	5.10802
3.15571	5.04855
3.15379	4.9349
3.15187	4.90433
3.14996	4.97809
3.14805	5.00228
3.14614	5.05331
3.14423	5.16367
3.14232	5.03218
3.14042	4.98721
3.13852	5.09321
3.13662	4.97735
3.13472	4.91332
3.13283	4.94674
3.13094	4.88949
3.12905	4.78299
3.12716	4.83969
3.12528	4.81023
3.12339	4.7376
3.12151	4.75421
3.11964	4.87023
3.11776	4.90252
3.11589	4.80608
3.11401	4.77308
3.11214	4.71154
3.11028	4.69112
3.10841	4.82384
3.10655	4.88007
3.10469	4.87726
3.10283	4.81115
3.10098	4.84133
3.09912	4.77271
3.09727	4.78237
3.09542	4.81122
3.09358	4.82495
3.09173	4.82221
3.08989	4.87338
3.08805	4.91537
3.08621	4.87002
3.08437	4.87756
3.08254	4.79114
3.08071	4.67294
3.07888	4.79763
3.07705	5.00902
3.07523	5.12615
3.0734	5.03926
3.07158	4.96603
3.06977	5.01471
3.06795	4.95307
3.06613	4.86103
3.06432	4.89255
3.06251	5.00017
3.0607	4.99717
3.0589	4.94935
3.0571	4.94694
3.05529	5.06054
3.05349	5.19252
3.0517	5.14333
3.0499	5.04419
3.04811	5.07022
3.04632	5.17101
3.04453	5.23532
3.04274	5.16515
3.04096	5.18392
3.03918	5.31544
3.0374	5.36406
3.03562	5.30016
3.03384	5.18445
3.03207	5.1848
3.03029	5.29774
3.02852	5.36977
3.02676	5.43085
3.02499	5.33838
3.02323	5.26749
3.02146	5.33476
3.0197	5.3018
3.01795	5.24672
3.01619	5.33595
3.01444	5.43623
3.01269	5.54547
3.01094	5.4831
3.00919	5.33577
3.00744	5.28687
3.0057	5.40209
3.00396	5.39836
3.00222	5.43505
3.00048	5.40169
2.99875	5.38655
2.99701	5.54476
2.99528	5.48767
2.99355	5.36116
2.99183	5.49536
2.9901	5.62627
2.98838	5.61126
2.98666	5.49318
2.98494	5.38121
2.98322	5.37739
2.9815	5.47211
2.97979	5.46768
2.97808	5.43809
2.97637	5.44209
2.97466	5.44664
2.97295	5.39705
2.97125	5.37802
2.96955	5.44588
2.96785	5.45847
2.96615	5.40914
2.96446	5.39702
2.96276	5.3873
2.96107	5.33209
2.95938	5.21927
2.95769	5.22146
2.95601	5.37457
2.95432	5.31348
2.95264	5.30591
2.95096	5.38703
2.94928	5.37584
2.9476	5.42175
2.94593	5.37066
2.94425	5.28439
2.94258	5.07214
2.94092	4.99105
2.93925	5.07802
2.93758	5.1677
2.93592	5.13515
2.93426	5.15047
2.9326	5.21055
2.93094	5.21413
2.92928	5.13731
2.92763	5.05646
2.92598	5.08965
2.92433	5.14864
2.92268	5.13587
2.92103	5.05812
2.91939	4.97083
2.91775	4.97485
2.9161	5.02268
2.91447	5.07658
2.91283	5.08271
2.91119	5.12609
2.90956	5.13386
2.90793	5.22911
2.9063	5.21926
2.90467	5.12905
2.90304	5.0938
2.90142	5.08657
2.89979	5.04096
2.89817	5.07244
2.89656	5.15948
2.89494	4.99222
2.89332	4.88698
2.89171	4.98232
2.8901	5.02917
2.88849	5.23239
2.88688	5.32062
2.88527	5.26671
2.88367	5.18768
2.88206	5.00548
2.88046	4.96223
2.87886	4.98964
2.87727	4.97068
2.87567	4.84256
2.87408	4.81988
2.87248	4.88433
2.87089	4.97016
2.8693	5.09086
2.86772	5.04174
2.86613	5.02599
2.86455	5.03176
2.86297	5.0329
2.86139	4.98804
2.85981	5.01949
2.85823	4.94359
2.85666	4.91414
2.85508	4.91343
2.85351	4.77947
2.85194	4.74792
2.85038	4.81905
2.84881	4.92491
2.84724	4.94637
2.84568	4.94409
2.84412	4.9235
2.84256	4.82302
2.841	4.81242
2.83945	4.8319
2.83789	4.80987
2.83634	4.81546
2.83479	4.7468
2.83324	4.64553
2.83169	4.67899
2.83015	4.70162
2.82861	4.734
2.82706	4.71894
2.82552	4.64239
2.82398	4.7384
2.82245	4.74241
2.82091	4.66366
2.81938	4.63775
2.81784	4.65242
2.81631	4.65766
2.81479	4.55844
2.81326	4.51116
2.81173	4.62042
2.81021	4.58621
2.80869	4.61861
2.80716	4.61452
2.80565	4.6478
2.80413	4.68247
2.80261	4.6221
2.8011	4.65701
2.79959	4.66393
2.79808	4.51476
2.79657	4.43766
2.79506	4.4844
2.79355	4.47268
2.79205	4.46629
2.79055	4.52592
2.78904	4.80007
2.78754	5.01685
2.78605	5.05736
2.78455	5.00397
2.78306	5.06718
2.78156	5.31818
2.78007	5.51765
2.77858	5.58913
2.77709	5.42469
2.77561	5.50566
2.77412	5.75056
2.77264	5.86288
2.77116	5.93315
2.76968	5.83042
2.7682	5.78603
2.76672	5.62953
2.76524	5.5935
2.76377	5.65957
2.7623	5.69478
2.76083	5.3311
2.75936	5.12834
2.75789	5.03937
2.75642	4.98011
2.75496	5.07146
2.7535	4.854
2.75203	4.76491
2.75057	4.7533
2.74912	4.69874
2.74766	4.66687
2.7462	4.78652
2.74475	4.77627
2.7433	4.69735
2.74185	4.94477
2.7404	5.29597
2.73895	5.33614
2.7375	5.18732
2.73606	5.18894
2.73462	5.24234
2.73318	5.27734
2.73174	5.31511
2.7303	5.41023
2.72886	5.34182
2.72742	5.36695
2.72599	5.43635
2.72456	5.58016
2.72313	5.5367
2.7217	5.59423
2.72027	5.88093
2.71884	6.07489
2.71742	6.34722
2.71599	6.83421
2.71457	7.66264
2.71315	8.6831
2.71173	10.0309
2.71032	11.5935
2.7089	12.9757
2.70748	14.2107
2.70607	15.4285
2.70466	16.7006
2.70325	17.8457
2.70184	18.9666
2.70043	19.875
2.69903	20.5593
2.69762	21.1837
2.69622	21.8849
2.69482	22.6644
2.69342	23.2672
2.69202	23.5316
2.69062	23.84
2.68923	24.2601
2.68783	24.7081
2.68644	25.1914
2.68505	25.6044
2.68366	25.9807
2.68227	26.2334
2.68089	26.5975
2.6795	27.2215
2.67812	27.6486
2.67673	28.0946
2.67535	28.1126
2.67397	28.0028
2.6726	28.408
2.67122	29.72
2.66984	30.1701
2.66847	29.6977
2.6671	30.4013
2.66572	30.9139
2.66435	30.7377
2.66299	30.2194
2.66162	30.3504
2.66025	30.5721
2.65889	30.766
2.65753	30.8278
2.65616	31.1483
2.65481	31.3837
2.65345	31.6866
2.65209	31.9238
2.65073	31.8193
2.64938	31.9168
2.64803	32.1676
2.64667	32.3243
2.64532	32.4762
2.64397	32.5029
2.64263	32.8058
2.64128	33.1218
2.63994	33.1962
2.63859	33.2278
2.63725	33.5268
2.63591	33.8665
2.63457	34.3524
2.63323	34.5063
2.6319	34.9146
2.63056	35.8101
2.62923	35.7371
2.62789	35.8063
2.62656	36.2763
2.62523	35.9457
2.6239	35.8279
2.62258	36.1951
2.62125	37.1327
2.61993	37.4155
2.6186	37.151
2.61728	37.7471
2.61596	37.8297
2.61464	37.5157
2.61332	37.718
2.61201	37.7326
2.61069	37.9475
2.60938	38.2466
2.60807	38.3868
2.60675	38.8591
2.60544	39.4355
2.60414	39.0944
2.60283	38.7755
2.60152	38.7335
2.60022	38.6579
2.59891	38.7084
2.59761	39.1091
2.59631	40.118
2.59501	41.365
2.59371	40.6538
2.59242	39.6801
2.59112	39.5237
2.58983	39.6796
2.58853	39.9229
2.58724	40.1149
2.58595	40.0417
2.58466	40.4837
2.58338	40.7451
2.58209	40.3614
2.5808	40.3553
2.57952	40.1291
2.57824	40.2966
2.57695	40.5681
2.57567	40.4658
2.5744	40.6747
2.57312	40.905
2.57184	40.6261
2.57057	40.9459
2.56929	41.2902
2.56802	41.0448
2.56675	41.0066
2.56548	41.2981
2.56421	41.7019
2.56294	41.9337
2.56168	42.1548
2.56041	41.9486
2.55915	41.596
2.55789	41.612
2.55662	41.7778
2.55536	41.8666
2.5541	42.1031
2.55285	42.4844
2.55159	42.5046
2.55034	42.4202
2.54908	42.4741
2.54783	42.7074
2.54658	42.7207
2.54533	42.7109
2.54408	42.8499
2.54283	42.9659
2.54159	42.9432
2.54034	42.9842
2.5391	43.0694
2.53785	43.0082
2.53661	43.1271
2.53537	43.2204
2.53413	43.2103
2.53289	43.3774
2.53166	43.4755
2.53042	43.4722
2.52919	43.6085
2.52795	43.8056
2.52672	43.9699
2.52549	44.0626
2.52426	44.1031
2.52303	44.2168
2.52181	44.2216
2.52058	44.2552
2.51936	44.1529
2.51813	44.0752
2.51691	44.2069
2.51569	44.3357
2.51447	44.3283
2.51325	44.345
2.51203	44.4087
2.51082	44.3453
2.5096	44.2323
2.50839	44.2204
2.50717	44.246
2.50596	44.3513
2.50475	44.356
2.50354	44.2067
2.50233	44.2146
2.50113	44.2243
2.49992	44.2388
2.49872	44.2467
2.49751	44.163
2.49631	44.2065
2.49511	44.2895
2.49391	44.3778
2.49271	44.3692
2.49151	44.1786
2.49031	44.1571
2.48912	44.3427
2.48792	44.4135
2.48673	44.3734
2.48554	44.3252
2.48435	44.3197
2.48316	44.4062
2.48197	44.4726
2.48078	44.525
2.4796	44.4328
2.47841	44.3569
2.47723	44.4245
2.47604	44.3643
2.47486	44.2881
2.47368	44.2942
2.4725	44.4239
2.47132	44.4517
2.47014	44.4224
2.46897	44.381
2.46779	44.4087
2.46662	44.3996
2.46545	44.3905
2.46427	44.5446
2.4631	44.6569
2.46193	44.6551
2.46077	44.5392
2.4596	44.4074
2.45843	44.3521
2.45727	44.4425
2.4561	44.4159
2.45494	44.3205
2.45378	44.3641
2.45262	44.2736
2.45146	44.2503
2.4503	44.3371
2.44914	44.3277
2.44799	44.2715
2.44683	44.2555
2.44568	44.2339
2.44452	44.0666
2.44337	43.8907
2.44222	43.8824
2.44107	43.8036
2.43992	43.5973
2.43877	43.549
2.43763	43.6383
2.43648	43.7879
2.43534	43.8775
2.43419	43.8845
2.43305	43.7409
2.43191	43.7092
2.43077	43.8466
2.42963	43.9997
2.42849	43.9594
2.42736	43.7963
2.42622	43.842
2.42509	44.0275
2.42395	44.0363
2.42282	43.9393
2.42169	43.9358
2.42056	43.9488
2.41943	43.891
2.4183	43.9551
2.41717	44.1059
2.41605	44.2364
2.41492	44.1366
2.4138	43.9979
2.41267	44.0349
2.41155	44.012
2.41043	43.892
2.40931	43.9415
2.40819	44.1572
2.40707	44.2436
2.40595	44.2268
2.40484	44.186
2.40372	44.2061
2.40261	44.2596
2.4015	44.2384
2.40039	44.2076
2.39928	44.3361
2.39817	44.4647
2.39706	44.5837
2.39595	44.7332
2.39484	44.7807
2.39374	44.7874
2.39263	44.8096
2.39153	44.7571
2.39043	44.7355
2.38932	44.8656
2.38822	45
2.38712	44.9241
2.38603	44.8137
2.38493	44.8793
2.38383	44.8589
2.38274	44.7274
2.38164	44.7988
2.38055	44.8984
2.37946	44.8782
2.37836	44.835
2.37727	44.8257
2.37618	44.7773
2.3751	44.6541
2.37401	44.5603
2.37292	44.466
2.37184	44.514
2.37075	44.4997
2.36967	44.4134
2.36859	44.2826
2.3675	44.1037
2.36642	44.0061
2.36534	43.8605
2.36427	43.6544
2.36319	43.4647
2.36211	43.3157
2.36104	43.2529
2.35996	43.1767
2.35889	43.0607
2.35781	42.8946
2.35674	42.7585
2.35567	42.5747
2.3546	42.512
2.35353	42.4942
2.35247	42.5633
2.3514	42.6564
2.35033	42.6825
2.34927	42.6931
2.3482	42.8564
2.34714	42.8898
2.34608	42.9816
2.34502	43.2237
2.34396	43.3833
2.3429	43.508
2.34184	43.705
2.34078	44.0382
2.33973	44.3651
2.33867	44.5248
2.33762	44.7156
2.33656	44.9373
2.33551	44.9681
2.33446	45.1078
2.33341	45.439
2.33236	45.7196
2.33131	45.986
2.33026	46.2783
2.32922	46.4605
2.32817	46.6388
2.32712	46.8925
2.32608	47.111
2.32504	47.2642
2.324	47.3911
2.32295	47.4348
2.32191	47.5611
2.32087	47.7501
2.31984	47.7637
2.3188	47.7533
2.31776	47.702
2.31673	47.7208
2.31569	47.8134
2.31466	47.9071
2.31362	47.911
2.31259	47.736
2.31156	47.7044
2.31053	47.796
2.3095	47.9001
2.30847	47.9833
2.30745	47.942
2.30642	48.0707
2.3054	48.1079
2.30437	48.1642
2.30335	48.4042
2.30232	48.569
2.3013	48.73
2.30028	48.9994
2.29926	49.262
2.29824	49.5316
2.29722	49.845
2.29621	50.0072
2.29519	50.0591
2.29417	50.2814
2.29316	50.5278
2.29215	50.8293
2.29113	51.0861
2.29012	51.3058
2.28911	51.4298
2.2881	51.6473
2.28709	51.8384
2.28608	51.8114
2.28507	51.9363
2.28407	52.2039
2.28306	52.3288
2.28206	52.3699
2.28105	52.5011
2.28005	52.5986
2.27905	52.6978
2.27805	52.7008
2.27705	52.7186
2.27605	52.8543
2.27505	52.9137
2.27405	53.032
2.27305	53.321
2.27206	53.6268
2.27106	53.7062
2.27007	53.6407
2.26907	53.7448
2.26808	53.8676
2.26709	53.7976
2.2661	53.8538
2.26511	54.0224
2.26412	54.1618
2.26313	54.3794
2.26214	54.6661
2.26116	54.7525
2.26017	54.8377
2.25919	55.0117
2.2582	55.2241
2.25722	55.4279
2.25624	55.6662
2.25526	55.9687
2.25428	56.1366
2.2533	56.2548
2.25232	56.3244
2.25134	56.4075
2.25036	56.6108
2.24939	56.8453
2.24841	56.9631
2.24744	57.0628
2.24646	57.1749
2.24549	57.2875
2.24452	57.4331
2.24355	57.4786
2.24257	57.6579
2.24161	57.8088
2.24064	57.864
2.23967	57.9616
2.2387	58.1177
2.23774	58.1895
2.23677	58.2163
2.23581	58.2038
2.23484	58.3614
2.23388	58.6044
2.23292	58.6999
2.23196	58.6824
2.231	58.741
2.23004	58.9093
2.22908	58.9877
2.22812	58.9664
2.22716	59.016
2.22621	59.158
2.22525	59.1639
2.2243	59.2472
2.22334	59.3893
2.22239	59.4268
2.22144	59.4048
2.22049	59.2766
2.21953	59.144
2.21859	59.1238
2.21764	59.246
2.21669	59.4209
2.21574	59.5239
2.21479	59.4401
2.21385	59.3752
2.2129	59.4263
2.21196	59.5475
2.21102	59.6931
2.21007	59.8288
2.20913	60.0442
2.20819	60.2103
2.20725	60.4147
2.20631	60.6386
2.20537	60.902
2.20444	61.1787
2.2035	61.5351
2.20256	61.8043
2.20163	62.0664
2.20069	62.4412
2.19976	62.6347
2.19883	62.7629
2.19789	62.8368
2.19696	62.9552
2.19603	63.2456
2.1951	63.5227
2.19417	63.665
2.19325	63.818
2.19232	63.8894
2.19139	63.7528
2.19047	63.7673
2.18954	64.0495
2.18862	64.2605
2.18769	64.206
2.18677	64.1057
2.18585	64.1813
2.18493	64.354
2.18401	64.563
2.18309	64.6745
2.18217	64.6331
2.18125	64.5802
2.18033	64.7195
2.17942	64.9216
2.1785	64.8826
2.17759	64.8501
2.17667	64.8823
2.17576	65.0381
2.17485	65.2868
2.17393	65.3171
2.17302	65.3023
2.17211	65.2625
2.1712	65.3567
2.17029	65.4745
2.16939	65.4166
2.16848	65.4847
2.16757	65.5371
2.16667	65.5209
2.16576	65.6352
2.16486	65.5683
2.16395	65.5459
2.16305	65.6721
2.16215	65.6084
2.16125	65.4616
2.16035	65.4491
2.15945	65.498
2.15855	65.5331
2.15765	65.5697
2.15675	65.5633
2.15586	65.4386
2.15496	65.4938
2.15406	65.3989
2.15317	65.4395
2.15228	65.5444
2.15138	65.345
2.15049	65.2146
2.1496	65.2184
2.14871	65.1715
2.14782	65.2194
2.14693	65.5195
2.14604	65.778
2.14515	65.5771
2.14427	65.4866
2.14338	65.7023
2.14249	65.8971
2.14161	65.9371
2.14072	66.0716
2.13984	66.3069
2.13896	66.4464
2.13808	66.4234
2.13719	66.5973
2.13631	66.9156
2.13543	67.0963
2.13455	67.1064
2.13368	67.3196
2.1328	67.6594
2.13192	67.7553
2.13105	67.8384
2.13017	67.9476
2.1293	68.1076
2.12842	68.4415
2.12755	68.5659
2.12668	68.6609
2.1258	68.8164
2.12493	68.9219
2.12406	69.0576
2.12319	69.3148
2.12232	69.4203
2.12145	69.5834
2.12059	69.7336
2.11972	69.8924
2.11885	70.1309
2.11799	70.2409
2.11712	70.4285
2.11626	70.5254
2.1154	70.5276
2.11453	70.6991
2.11367	70.8449
2.11281	71.1301
2.11195	71.3403
2.11109	71.2804
2.11023	71.4106
2.10937	71.6888
2.10851	71.8514
2.10766	71.9925
2.1068	72.0549
2.10594	72.1361
2.10509	72.3329
2.10423	72.4245
2.10338	72.5133
2.10253	72.7295
2.10168	72.9039
2.10082	72.7831
2.09997	72.7978
2.09912	73.0339
2.09827	72.9899
2.09742	73.0237
2.09658	73.294
2.09573	73.4184
2.09488	73.6106
2.09404	73.7484
2.09319	73.825
2.09235	74.0059
2.0915	73.9275
2.09066	73.869
2.08982	74.0466
2.08897	74.2571
2.08813	74.1945
2.08729	74.1903
2.08645	74.3367
2.08561	74.3297
2.08477	74.4535
2.08394	74.6729
2.0831	74.705
2.08226	74.6296
2.08143	74.7488
2.08059	74.7298
2.07976	74.6724
2.07892	74.8791
2.07809	75.0249
2.07726	75.0617
2.07643	75.0234
2.07559	75.0246
2.07476	75.1389
2.07393	75.2137
2.0731	75.2069
2.07228	75.0048
2.07145	74.9938
2.07062	75.0923
2.06979	75.043
2.06897	75.0004
2.06814	75.0409
2.06732	75.2092
2.06649	75.281
2.06567	75.1077
2.06485	75.1917
2.06403	75.2705
2.0632	75.2148
2.06238	75.3526
2.06156	75.3905
2.06074	75.3516
2.05993	75.3136
2.05911	75.323
2.05829	75.3469
2.05747	75.5181
2.05666	75.9397
2.05584	75.9005
2.05503	75.6568
2.05421	75.4687
2.0534	75.3881
2.05259	75.5399
2.05177	75.5093
2.05096	75.614
2.05015	75.7317
2.04934	75.5023
2.04853	75.7208
2.04772	76.0485
2.04691	75.9371
2.04611	75.233
2.0453	75.2148
2.04449	75.5108
2.04369	75.4939
2.04288	75.6732
2.04208	75.8468
2.04127	76.0013
2.04047	76.0087
2.03967	75.8815
2.03886	76.1047
2.03806	76.2323
2.03726	76.0128
2.03646	75.9609
2.03566	75.8528
2.03486	75.8012
2.03407	75.765
2.03327	75.8981
2.03247	76.0631
2.03167	76.0717
2.03088	75.9627
2.03008	75.8738
2.02929	75.8941
2.0285	76.0107
2.0277	76.0343
2.02691	75.7121
2.02612	75.6491
2.02533	75.8677
2.02453	75.7577
2.02374	75.6192
2.02295	75.4783
2.02217	75.2805
2.02138	75.2664
2.02059	75.2559
2.0198	75.3338
2.01902	75.534
2.01823	75.678
2.01744	75.6845
2.01666	75.6898
2.01588	75.8338
2.01509	75.7466
2.01431	75.4536
2.01353	75.4608
2.01275	75.5974
2.01196	75.4272
2.01118	75.2733
2.0104	75.3164
2.00963	75.5232
2.00885	75.6605
2.00807	75.6092
2.00729	75.4619
2.00651	75.5119
2.00574	75.4705
2.00496	75.409
2.00419	75.4359
2.00341	75.313
2.00264	75.2129
2.00187	75.2806
2.00109	75.2191
2.00032	74.9386
