Name: Glauconite (K,Na)(Fe^3+,Al,Mg)_2(Si,Al)_4O_10(OH)_2
Type: Mineral
Class: Silicates
Subclass: Phyllosilicates
Particle Size: 45-125um
Sample No.: PS-19A
Owner: JPL
Wavelength range: IR
Origin: USA, New Jersey
Collected by Ward's
Description: 





Measurement: Hemispherical reflectance
First Column: X
Second Column: Y
X Units:  Wavelength (micrometers)
Y Units:  Reflectance (percent)
First X Value: 15.3853
Last X Value: 2.00032
Number of X Values: 2256
Additional information: ps19aa.txt
 
15.3853	0.899018
15.3397	1.2263
15.2945	1.24686
15.2495	0.927886
15.2048	0.953908
15.1603	1.08492
15.1161	1.03339
15.0722	0.873301
15.0285	0.888641
14.9851	1.0853
14.9419	1.22693
14.8989	1.13512
14.8563	1.03942
14.8138	0.943552
14.7716	0.928568
14.7296	0.930914
14.6879	0.879672
14.6464	1.05044
14.6052	0.912765
14.5641	0.695741
14.5233	0.810013
14.4828	0.959122
14.4424	1.13314
14.4023	1.15765
14.3624	1.0745
14.3227	0.875875
14.2833	0.886518
14.244	0.911873
14.205	0.896058
14.1662	0.838815
14.1276	0.806659
14.0892	0.922105
14.051	0.932583
14.0131	0.941779
13.9753	1.00682
13.9377	0.903389
13.9004	0.905235
13.8632	0.912958
13.8262	0.874028
13.7895	0.996589
13.7529	1.2571
13.7165	1.41406
13.6803	1.31518
13.6443	1.22794
13.6085	1.30163
13.5729	1.18518
13.5374	1.03997
13.5022	1.37116
13.4671	1.29554
13.4322	1.10852
13.3975	1.23431
13.363	1.25064
13.3286	1.25807
13.2944	1.3608
13.2604	1.47733
13.2266	1.53347
13.193	1.59541
13.1595	1.57242
13.1262	1.51511
13.093	1.42994
13.06	1.38289
13.0272	1.46058
12.9946	1.46365
12.9621	1.49495
12.9298	1.59175
12.8976	1.72707
12.8656	1.75514
12.8337	1.62372
12.8021	1.56134
12.7705	1.559
12.7391	1.52559
12.7079	1.62877
12.6769	1.53141
12.6459	1.48741
12.6152	1.77652
12.5845	1.89574
12.5541	1.67916
12.5238	1.65307
12.4936	1.75054
12.4635	1.81738
12.4337	1.84944
12.4039	1.7551
12.3743	1.73611
12.3448	1.7374
12.3155	1.75088
12.2863	1.7053
12.2573	1.59717
12.2284	1.62418
12.1996	1.79073
12.171	1.72924
12.1425	1.54409
12.1141	1.61067
12.0859	1.58958
12.0578	1.55283
12.0298	1.68293
12.0019	1.88747
11.9742	1.85216
11.9466	1.77264
11.9192	1.69317
11.8918	1.70627
11.8646	1.71626
11.8375	1.7478
11.8106	1.84438
11.7837	1.98112
11.757	1.90359
11.7304	1.76658
11.7039	1.79874
11.6776	1.96583
11.6513	2.00138
11.6252	2.01489
11.5992	2.01764
11.5733	2.00191
11.5475	2.00811
11.5219	2.03656
11.4963	2.12059
11.4709	2.23161
11.4455	2.28748
11.4203	2.16183
11.3952	2.09432
11.3702	2.14888
11.3454	2.21885
11.3206	2.3513
11.2959	2.37762
11.2714	2.30068
11.2469	2.22974
11.2226	2.20388
11.1983	2.2846
11.1742	2.4233
11.1502	2.41712
11.1263	2.52384
11.1024	2.58173
11.0787	2.53556
11.0551	2.56268
11.0316	2.64972
11.0081	2.69875
10.9848	2.61277
10.9616	2.6098
10.9385	2.69417
10.9154	2.76998
10.8925	2.83689
10.8697	2.86886
10.8469	2.89525
10.8243	2.88921
10.8017	2.86423
10.7793	2.98606
10.7569	3.09418
10.7346	3.22103
10.7125	3.34315
10.6904	3.51604
10.6684	3.6441
10.6465	3.74396
10.6247	3.79518
10.6029	3.98089
10.5813	4.14583
10.5597	4.21574
10.5383	4.27115
10.5169	4.34454
10.4956	4.53745
10.4744	4.74647
10.4533	4.86304
10.4323	4.85192
10.4113	4.93978
10.3904	5.0758
10.3697	5.17339
10.349	5.31183
10.3284	5.4804
10.3078	5.64565
10.2874	5.75607
10.267	5.84518
10.2467	5.88317
10.2265	6.01737
10.2064	6.16029
10.1863	6.22284
10.1663	6.32902
10.1464	6.33639
10.1266	6.49309
10.1069	6.71599
10.0872	6.82726
10.0676	6.90198
10.0481	6.80772
10.0287	6.95367
10.0093	7.25753
9.99005	7.39104
9.97084	7.48063
9.95169	7.57732
9.93263	7.65413
9.91364	7.63993
9.89472	7.72448
9.87587	7.79737
9.8571	7.8819
9.83839	8.05393
9.81976	8.21966
9.80119	8.32912
9.78271	8.523
9.76428	8.5892
9.74592	8.56627
9.72764	8.56785
9.70943	8.57098
9.69128	8.59407
9.6732	8.79758
9.65518	9.01119
9.63724	9.2353
9.61935	9.25786
9.60155	9.19676
9.5838	9.31693
9.56611	9.37753
9.5485	9.44321
9.53094	9.60903
9.51345	9.62661
9.49604	9.3682
9.47867	9.1315
9.46137	9.0454
9.44414	8.91197
9.42697	8.71527
9.40986	8.31889
9.39281	7.83515
9.37583	7.56534
9.35891	7.33715
9.34204	7.04889
9.32524	6.79665
9.3085	6.7282
9.29182	6.56876
9.27519	6.32028
9.25863	5.94747
9.24213	5.77494
9.22568	5.75754
9.2093	5.64543
9.19297	5.55142
9.17669	5.37919
9.16048	5.23644
9.14433	5.14556
9.12823	5.03752
9.11218	4.85059
9.0962	4.73365
9.08027	4.48935
9.06439	4.18086
9.04858	4.14766
9.03281	4.16616
9.0171	4.04324
9.00145	3.92777
8.98585	3.65244
8.9703	3.35292
8.9548	3.22773
8.93937	3.17514
8.92398	2.97436
8.90865	2.7304
8.89337	2.52685
8.87814	2.21992
8.86296	2.0745
8.84784	2.12215
8.83277	2.03948
8.81774	1.83633
8.80277	1.65211
8.78786	1.57192
8.77298	1.54369
8.75816	1.45149
8.7434	1.34255
8.72868	1.163
8.714	1.06624
8.69938	0.930115
8.68481	0.897469
8.67029	0.998369
8.65581	0.884776
8.64139	0.726125
8.62701	0.687914
8.61268	0.6588
8.5984	0.645373
8.58416	0.600687
8.56997	0.620136
8.55583	0.676333
8.54174	0.727121
8.52769	0.821382
8.51368	0.816549
8.49973	0.649326
8.48582	0.62249
8.47195	0.710214
8.45813	0.701311
8.44436	0.662694
8.43062	0.670666
8.41693	0.723362
8.4033	0.779676
8.3897	0.623499
8.37614	0.4986
8.36264	0.643806
8.34917	0.666392
8.33574	0.555516
8.32236	0.5841
8.30903	0.733867
8.29573	0.792155
8.28248	0.800031
8.26927	0.822446
8.2561	0.817409
8.24298	0.7562
8.2299	0.69845
8.21685	0.684764
8.20385	0.735235
8.19089	0.638616
8.17797	0.549863
8.16509	0.737132
8.15225	0.907124
8.13946	0.79347
8.1267	0.633194
8.11398	0.464626
8.10131	0.462744
8.08867	0.720446
8.07606	0.816202
8.0635	0.761265
8.05099	0.647937
8.0385	0.645129
8.02606	0.684907
8.01366	0.773449
8.00129	0.727463
7.98896	0.621806
7.97667	0.609201
7.96442	0.652005
7.9522	0.716265
7.94002	0.775317
7.92788	0.734771
7.91578	0.686821
7.90371	0.725764
7.89168	0.827659
7.87969	0.817683
7.86773	0.751603
7.85581	0.764619
7.84392	0.823935
7.83207	0.804585
7.82026	0.83754
7.80849	0.987692
7.79674	1.01866
7.78503	0.92904
7.77337	0.844673
7.76173	0.92519
7.75012	1.02053
7.73856	0.999686
7.72703	1.03046
7.71553	1.07325
7.70406	1.05171
7.69263	1.07102
7.68123	1.17083
7.66987	1.22167
7.65855	1.18323
7.64725	1.15544
7.63598	1.18345
7.62475	1.20782
7.61356	1.24627
7.60239	1.29101
7.59126	1.29999
7.58017	1.25431
7.5691	1.15125
7.55806	1.24614
7.54707	1.41211
7.5361	1.39972
7.52516	1.34316
7.51425	1.3373
7.50338	1.36597
7.49253	1.40157
7.48172	1.47728
7.47094	1.54233
7.46019	1.51799
7.44947	1.40242
7.43879	1.36389
7.42813	1.46128
7.4175	1.5582
7.4069	1.55532
7.39634	1.58649
7.3858	1.60574
7.37529	1.62697
7.36482	1.66329
7.35437	1.66716
7.34396	1.71902
7.33357	1.75213
7.32321	1.76443
7.31288	1.78958
7.30258	1.72935
7.29231	1.70508
7.28207	1.75715
7.27185	1.8163
7.26167	1.77684
7.25152	1.73329
7.24139	1.82172
7.23129	1.9076
7.22122	2.00861
7.21117	2.06405
7.20116	2.03557
7.19117	1.99381
7.18121	2.00145
7.17128	2.03027
7.16137	2.10027
7.1515	2.12862
7.14164	2.16288
7.13182	2.15303
7.12203	2.12717
7.11225	2.17594
7.10251	2.17482
7.0928	2.26766
7.08311	2.32515
7.07344	2.26128
7.06381	2.18538
7.0542	2.1648
7.04461	2.24462
7.03506	2.36099
7.02552	2.3984
7.01601	2.36582
7.00653	2.39165
6.99708	2.45726
6.98765	2.4876
6.97824	2.46378
6.96886	2.51318
6.95951	2.53633
6.95018	2.52337
6.94087	2.55221
6.9316	2.57454
6.92234	2.58456
6.91311	2.61259
6.90391	2.59775
6.89473	2.61232
6.88557	2.68686
6.87644	2.68687
6.86733	2.66781
6.85824	2.73797
6.84918	2.81354
6.84015	2.74599
6.83114	2.65593
6.82215	2.75452
6.81319	2.81306
6.80424	2.88558
6.79532	2.92455
6.78643	2.92716
6.77756	3.02045
6.76871	3.14004
6.75989	3.22492
6.75109	3.24733
6.74231	3.25403
6.73355	3.26708
6.72482	3.24379
6.71611	3.23396
6.70742	3.29138
6.69875	3.36808
6.69011	3.297
6.68149	3.21608
6.67289	3.27753
6.66431	3.33175
6.65576	3.36444
6.64722	3.26422
6.63871	3.14281
6.63022	3.23739
6.62175	3.35746
6.61331	3.34945
6.60488	3.41158
6.59648	3.42492
6.5881	3.50236
6.57974	3.43863
6.5714	3.26973
6.56308	3.25041
6.55478	3.27826
6.54651	3.34752
6.53825	3.35282
6.53001	3.35139
6.5218	3.25952
6.51361	3.20652
6.50544	3.21964
6.49729	3.11338
6.48915	3.13903
6.48104	3.12449
6.47295	3.09455
6.46488	3.13444
6.45683	3.13546
6.4488	3.01781
6.44079	2.94082
6.4328	3.01844
6.42482	2.98097
6.41687	2.75268
6.40894	2.71959
6.40103	2.81066
6.39314	2.91547
6.38526	2.93297
6.37741	2.74617
6.36957	2.56045
6.36176	2.53705
6.35396	2.49337
6.34618	2.34691
6.33843	2.32081
6.33069	2.33661
6.32297	2.25387
6.31527	2.26342
6.30758	2.20807
6.29992	2.07594
6.29227	1.95285
6.28465	1.91724
6.27704	1.89994
6.26945	1.76651
6.26188	1.6103
6.25432	1.63155
6.24679	1.55267
6.23927	1.418
6.23177	1.41428
6.22429	1.35436
6.21683	1.27254
6.20938	1.33142
6.20195	1.25272
6.19454	1.16006
6.18715	1.14776
6.17978	1.13187
6.17242	1.10959
6.16508	1.0448
6.15776	0.981924
6.15045	0.993027
6.14317	1.00284
6.1359	0.940409
6.12864	0.941648
6.12141	0.925111
6.11419	0.959628
6.10699	1.06001
6.0998	0.986896
6.09263	0.961545
6.08549	1.05685
6.07835	1.02571
6.07123	0.989998
6.06413	1.05123
6.05705	1.08964
6.04998	0.983348
6.04293	1.00655
6.0359	1.12128
6.02888	1.16506
6.02187	1.22314
6.01489	1.21072
6.00792	1.27023
6.00096	1.27973
5.99403	1.25292
5.98711	1.238
5.9802	1.29703
5.97331	1.32914
5.96644	1.29887
5.95958	1.34883
5.95274	1.44078
5.94591	1.48753
5.9391	1.50347
5.9323	1.56175
5.92552	1.61864
5.91876	1.78642
5.91201	1.89949
5.90528	1.79763
5.89856	1.68645
5.89186	1.8469
5.88517	1.97458
5.8785	2.00277
5.87184	2.11367
5.8652	2.25744
5.85857	2.32049
5.85196	2.41972
5.84536	2.57802
5.83878	2.63701
5.83221	2.56829
5.82566	2.58509
5.81912	2.76059
5.81259	2.99112
5.80608	3.14504
5.79959	3.1218
5.79311	3.05879
5.78665	3.08216
5.78019	3.17857
5.77376	3.23237
5.76734	3.20697
5.76093	3.33191
5.75453	3.46672
5.74815	3.51728
5.74179	3.52805
5.73543	3.59606
5.7291	3.66324
5.72277	3.64319
5.71646	3.66173
5.71017	3.73855
5.70389	3.82859
5.69762	3.82732
5.69136	3.83434
5.68513	3.84393
5.6789	3.81293
5.67268	3.87686
5.66648	4.01332
5.6603	4.08887
5.65413	4.11377
5.64797	4.12289
5.64182	4.11251
5.63569	4.17675
5.62957	4.15082
5.62347	4.14474
5.61737	4.28919
5.61129	4.3944
5.60522	4.40971
5.59917	4.3956
5.59313	4.35803
5.5871	4.38891
5.58109	4.44276
5.57509	4.49596
5.5691	4.52923
5.56312	4.50965
5.55716	4.55192
5.55121	4.64858
5.54528	4.73428
5.53935	4.80355
5.53344	4.90028
5.52754	4.92133
5.52166	4.94265
5.51578	4.98996
5.50992	5.01635
5.50407	5.04405
5.49823	5.09061
5.49241	5.15353
5.4866	5.20673
5.4808	5.18612
5.47501	5.22066
5.46923	5.22123
5.46347	5.23615
5.45772	5.28983
5.45198	5.38223
5.44625	5.48262
5.44054	5.52126
5.43484	5.54491
5.42914	5.49614
5.42347	5.4624
5.4178	5.5138
5.41214	5.57938
5.4065	5.61628
5.40087	5.65971
5.39525	5.72916
5.38964	5.80162
5.38404	5.87495
5.37846	5.90272
5.37288	5.88559
5.36732	5.93789
5.36177	5.96089
5.35623	5.97622
5.35071	6.01661
5.34519	6.10172
5.33968	6.15359
5.33419	6.20927
5.32871	6.30629
5.32324	6.39473
5.31778	6.41114
5.31233	6.37518
5.30689	6.38943
5.30147	6.52377
5.29605	6.64029
5.29065	6.73038
5.28525	6.79281
5.27987	6.88042
5.2745	6.9651
5.26914	7.01133
5.26379	7.12471
5.25845	7.1674
5.25312	7.16332
5.24781	7.26307
5.2425	7.3763
5.23721	7.49735
5.23192	7.53516
5.22665	7.57533
5.22138	7.60603
5.21613	7.684
5.21089	7.76678
5.20566	7.90046
5.20044	8.00168
5.19522	8.07219
5.19002	8.15167
5.18483	8.14197
5.17965	8.18469
5.17448	8.2788
5.16933	8.32902
5.16418	8.32744
5.15904	8.3538
5.15391	8.41824
5.14879	8.43157
5.14368	8.4727
5.13859	8.55333
5.1335	8.62229
5.12842	8.59487
5.12335	8.59249
5.1183	8.65064
5.11325	8.67692
5.10821	8.71143
5.10318	8.77263
5.09817	8.77684
5.09316	8.78646
5.08816	8.7968
5.08317	8.79776
5.07819	8.82765
5.07322	8.94763
5.06826	9.06535
5.06331	9.07077
5.05837	9.13055
5.05344	9.15321
5.04852	9.07695
5.04361	9.14734
5.03871	9.18644
5.03382	9.12729
5.02894	9.11885
5.02406	9.15989
5.0192	9.14012
5.01435	9.18929
5.0095	9.26625
5.00467	9.27259
4.99984	9.25544
4.99502	9.29742
4.99021	9.38574
4.98542	9.40749
4.98063	9.43964
4.97585	9.45764
4.97108	9.41929
4.96632	9.38428
4.96156	9.43725
4.95682	9.52583
4.95209	9.52357
4.94736	9.58301
4.94264	9.64141
4.93794	9.59273
4.93324	9.6514
4.92855	9.70702
4.92387	9.72395
4.9192	9.77116
4.91453	9.83084
4.90988	9.87423
4.90524	9.90932
4.9006	9.84486
4.89597	9.82629
4.89135	9.92684
4.88674	9.97305
4.88214	10.0392
4.87755	10.1131
4.87296	10.0741
4.86839	10.0549
4.86382	10.1379
4.85926	10.1143
4.85471	10.0915
4.85017	10.0732
4.84564	10.1131
4.84111	10.2365
4.8366	10.3705
4.83209	10.3889
4.82759	10.3446
4.8231	10.4346
4.81862	10.4993
4.81415	10.3796
4.80968	10.4142
4.80522	10.5743
4.80077	10.6244
4.79633	10.6865
4.7919	10.7952
4.78747	10.8298
4.78306	10.7898
4.77865	10.8334
4.77425	10.8573
4.76986	10.9368
4.76547	11.0733
4.7611	11.1624
4.75673	11.1848
4.75237	11.211
4.74802	11.2489
4.74367	11.3347
4.73934	11.4156
4.73501	11.4869
4.73069	11.4653
4.72638	11.4386
4.72207	11.5297
4.71777	11.6311
4.71348	11.7253
4.7092	11.7304
4.70493	11.7031
4.70066	11.7351
4.69641	11.7866
4.69216	11.789
4.68791	11.8409
4.68368	11.9828
4.67945	12.0669
4.67523	12.075
4.67102	12.0983
4.66682	12.1059
4.66262	12.1058
4.65843	12.1897
4.65425	12.2857
4.65007	12.375
4.64591	12.3816
4.64175	12.3641
4.6376	12.4141
4.63345	12.4701
4.62932	12.511
4.62519	12.5509
4.62106	12.5437
4.61695	12.5501
4.61284	12.6348
4.60874	12.6776
4.60465	12.7389
4.60056	12.782
4.59648	12.8327
4.59241	12.9125
4.58835	12.9543
4.58429	12.9865
4.58024	12.9645
4.5762	12.9762
4.57216	13.1558
4.56814	13.2699
4.56411	13.2177
4.5601	13.1312
4.55609	13.18
4.55209	13.2478
4.5481	13.2095
4.54411	13.3133
4.54013	13.4303
4.53616	13.4464
4.5322	13.4552
4.52824	13.4526
4.52429	13.4985
4.52034	13.5624
4.51641	13.665
4.51247	13.754
4.50855	13.7399
4.50463	13.6887
4.50072	13.7883
4.49682	13.8779
4.49292	13.8376
4.48903	13.7882
4.48515	13.8113
4.48127	13.8995
4.4774	13.9811
4.47354	14.0059
4.46968	14.0463
4.46584	14.0836
4.46199	14.1347
4.45815	14.2088
4.45432	14.2673
4.4505	14.3374
4.44668	14.3778
4.44287	14.3709
4.43907	14.4229
4.43527	14.5311
4.43148	14.5475
4.4277	14.5521
4.42392	14.5449
4.42015	14.5243
4.41638	14.5812
4.41262	14.6486
4.40887	14.7005
4.40513	14.7576
4.40139	14.82
4.39765	14.7749
4.39393	14.744
4.39021	14.8354
4.38649	14.8827
4.38278	14.8443
4.37908	14.8536
4.37539	14.9164
4.3717	15.045
4.36801	15.0937
4.36434	15.0763
4.36067	15.0786
4.357	15.0594
4.35335	15.0719
4.34969	15.1128
4.34605	15.1662
4.34241	15.1582
4.33877	15.202
4.33514	15.3076
4.33152	15.3568
4.32791	15.3975
4.3243	15.3895
4.32069	15.3797
4.3171	15.4375
4.31351	15.4343
4.30992	15.4778
4.30634	15.575
4.30277	15.5474
4.2992	15.5064
4.29564	15.5808
4.29208	15.7242
4.28853	15.7169
4.28499	15.6817
4.28145	15.691
4.27792	15.7316
4.27439	15.7878
4.27087	15.7218
4.26735	15.6738
4.26384	15.7406
4.26034	15.7842
4.25684	15.8345
4.25335	15.841
4.24986	15.85
4.24638	15.9656
4.24291	16.0546
4.23944	16.1431
4.23598	16.1183
4.23252	16.0792
4.22906	16.1085
4.22562	16.0848
4.22218	16.1732
4.21874	16.1671
4.21531	16.1286
4.21189	16.1271
4.20847	16.1036
4.20506	16.1489
4.20165	16.1482
4.19825	16.1044
4.19485	16.1072
4.19146	16.1049
4.18807	16.2122
4.18469	16.2364
4.18132	16.2127
4.17795	16.2698
4.17458	16.2802
4.17123	16.2816
4.16787	16.2889
4.16453	16.2812
4.16118	16.2825
4.15785	16.3357
4.15451	16.363
4.15119	16.4094
4.14787	16.4093
4.14455	16.3596
4.14124	16.3956
4.13794	16.4363
4.13464	16.4243
4.13134	16.4167
4.12805	16.415
4.12477	16.4109
4.12149	16.4254
4.11822	16.4266
4.11495	16.5166
4.11168	16.5937
4.10843	16.5841
4.10517	16.5676
4.10192	16.5078
4.09868	16.5235
4.09545	16.5484
4.09221	16.4993
4.08899	16.5487
4.08576	16.5588
4.08255	16.5564
4.07933	16.5698
4.07613	16.5968
4.07292	16.6013
4.06973	16.5973
4.06654	16.5807
4.06335	16.586
4.06017	16.6429
4.05699	16.6306
4.05382	16.6066
4.05065	16.6276
4.04749	16.6788
4.04433	16.6726
4.04118	16.6048
4.03803	16.6286
4.03489	16.6468
4.03175	16.6842
4.02862	16.6846
4.02549	16.6504
4.02237	16.6643
4.01925	16.6785
4.01614	16.6996
4.01303	16.7053
4.00993	16.7738
4.00683	16.6957
4.00373	16.6436
4.00064	16.6158
3.99756	16.6216
3.99448	16.6425
3.9914	16.6572
3.98833	16.6826
3.98527	16.671
3.98221	16.5998
3.97915	16.5693
3.9761	16.5633
3.97305	16.5595
3.97001	16.5948
3.96697	16.6558
3.96394	16.6417
3.96091	16.6052
3.95789	16.5734
3.95487	16.5942
3.95186	16.6742
3.94885	16.6485
3.94584	16.5511
3.94284	16.5172
3.93984	16.5521
3.93685	16.5169
3.93386	16.5452
3.93088	16.5554
3.9279	16.5112
3.92493	16.4772
3.92196	16.4318
3.919	16.4409
3.91604	16.4225
3.91308	16.3408
3.91013	16.357
3.90718	16.407
3.90424	16.4049
3.9013	16.411
3.89837	16.3271
3.89544	16.2631
3.89252	16.2949
3.8896	16.2556
3.88668	16.2207
3.88377	16.1939
3.88086	16.0555
3.87796	16.0431
3.87506	16.0552
3.87217	16.0531
3.86928	16.0231
3.86639	16.0014
3.86351	15.972
3.86064	15.8473
3.85776	15.7191
3.8549	15.7478
3.85203	15.7651
3.84917	15.7384
3.84631	15.7652
3.84346	15.6384
3.84062	15.5683
3.83777	15.6281
3.83494	15.5265
3.8321	15.4475
3.82927	15.3681
3.82644	15.3776
3.82362	15.3554
3.82081	15.3131
3.81799	15.2156
3.81518	15.1004
3.81238	15.034
3.80958	14.9884
3.80678	14.9906
3.80399	15.0048
3.8012	14.9562
3.79841	14.8651
3.79563	14.8224
3.79286	14.7125
3.79008	14.606
3.78731	14.5739
3.78455	14.5496
3.78179	14.5637
3.77903	14.4664
3.77628	14.436
3.77353	14.3756
3.77079	14.2459
3.76805	14.1306
3.76531	14.0863
3.76258	14.1195
3.75985	14.0136
3.75713	13.8897
3.7544	13.8408
3.75169	13.8226
3.74898	13.8033
3.74627	13.6939
3.74356	13.5432
3.74086	13.4442
3.73816	13.3708
3.73547	13.397
3.73278	13.3263
3.7301	13.2061
3.72741	13.141
3.72474	13.1205
3.72206	13.016
3.71939	12.875
3.71673	12.7433
3.71406	12.6989
3.71141	12.6419
3.70875	12.5545
3.7061	12.5319
3.70345	12.4704
3.70081	12.4363
3.69817	12.3213
3.69553	12.1127
3.6929	12.0145
3.69027	11.9688
3.68765	11.9033
3.68503	11.801
3.68241	11.6725
3.6798	11.6063
3.67719	11.6182
3.67458	11.5647
3.67198	11.4838
3.66938	11.3593
3.66678	11.2354
3.66419	11.1102
3.66161	11.034
3.65902	11.0643
3.65644	11.0502
3.65387	11.0134
3.65129	10.9211
3.64872	10.7273
3.64616	10.5984
3.64359	10.5074
3.64103	10.4977
3.63848	10.5243
3.63593	10.4991
3.63338	10.467
3.63084	10.3188
3.6283	10.1512
3.62576	10.082
3.62322	9.9967
3.62069	9.90782
3.61817	9.87219
3.61564	9.76259
3.61312	9.67319
3.61061	9.59497
3.6081	9.54755
3.60559	9.51931
3.60308	9.408
3.60058	9.28386
3.59808	9.23076
3.59558	9.11407
3.59309	9.03337
3.59061	8.99052
3.58812	8.84177
3.58564	8.77588
3.58316	8.72882
3.58069	8.68032
3.57822	8.58738
3.57575	8.53704
3.57328	8.59384
3.57082	8.55315
3.56836	8.39082
3.56591	8.21145
3.56346	8.22771
3.56101	8.21947
3.55857	8.01846
3.55613	7.91955
3.55369	7.8427
3.55126	7.75636
3.54883	7.66367
3.5464	7.57556
3.54397	7.66035
3.54155	7.56541
3.53914	7.44204
3.53672	7.36218
3.53431	7.26916
3.5319	7.19828
3.5295	7.14067
3.5271	7.05866
3.5247	6.99391
3.52231	6.98521
3.51991	6.98738
3.51753	6.84488
3.51514	6.61542
3.51276	6.5568
3.51038	6.58256
3.50801	6.43804
3.50563	6.32417
3.50327	6.33912
3.5009	6.30438
3.49854	6.29267
3.49618	6.24065
3.49382	6.14184
3.49147	6.11927
3.48912	6.04599
3.48677	6.00323
3.48443	5.95957
3.48209	5.92188
3.47975	5.80748
3.47742	5.74659
3.47509	5.66937
3.47276	5.58828
3.47044	5.46663
3.46812	5.46914
3.4658	5.50766
3.46348	5.45311
3.46117	5.40192
3.45886	5.40452
3.45656	5.37937
3.45425	5.21763
3.45195	5.02091
3.44966	4.93337
3.44736	5.05071
3.44507	5.07878
3.44279	4.96649
3.4405	4.89596
3.43822	4.81945
3.43594	4.7286
3.43367	4.63287
3.43139	4.63498
3.42912	4.70622
3.42686	4.67802
3.42459	4.48142
3.42233	4.38675
3.42007	4.43379
3.41782	4.42924
3.41557	4.3113
3.41332	4.27029
3.41108	4.32471
3.40883	4.34438
3.40659	4.2482
3.40435	4.13005
3.40212	4.09275
3.39989	4.07547
3.39766	3.96512
3.39544	3.93903
3.39322	3.96719
3.391	3.97765
3.38878	4.01566
3.38657	3.96729
3.38436	3.8076
3.38215	3.70758
3.37994	3.64868
3.37774	3.58195
3.37554	3.6357
3.37335	3.59506
3.37115	3.53078
3.36896	3.53118
3.36678	3.39317
3.36459	3.34153
3.36241	3.46503
3.36023	3.47523
3.35805	3.35141
3.35588	3.27637
3.35371	3.34646
3.35154	3.50582
3.34938	3.5451
3.34721	3.41205
3.34505	3.31937
3.3429	3.25626
3.34074	3.2606
3.33859	3.21228
3.33644	3.05984
3.3343	3.04356
3.33215	3.1364
3.33001	3.07893
3.32788	2.97181
3.32574	2.97633
3.32361	2.96779
3.32148	2.93464
3.31936	2.93127
3.31723	2.977
3.31511	2.95467
3.31299	2.84057
3.31088	2.7589
3.30876	2.69354
3.30665	2.59495
3.30455	2.73376
3.30244	2.85094
3.30034	2.73242
3.29824	2.51793
3.29614	2.58238
3.29405	2.6997
3.29196	2.74364
3.28987	2.6576
3.28778	2.61249
3.2857	2.61768
3.28362	2.49712
3.28154	2.53485
3.27946	2.56002
3.27739	2.36054
3.27532	2.24509
3.27325	2.32435
3.27119	2.36439
3.26913	2.41772
3.26707	2.38674
3.26501	2.3705
3.26295	2.46476
3.2609	2.44444
3.25885	2.36605
3.2568	2.30848
3.25476	2.33602
3.25272	2.44878
3.25068	2.46035
3.24864	2.29703
3.24661	2.16841
3.24458	2.11689
3.24255	2.12621
3.24052	2.16672
3.2385	2.15413
3.23648	2.11944
3.23446	2.09731
3.23244	2.06046
3.23043	2.05161
3.22841	2.12037
3.2264	2.15859
3.2244	2.11175
3.22239	2.05539
3.22039	2.05411
3.21839	2.10866
3.2164	2.05535
3.2144	1.99991
3.21241	2.04678
3.21042	2.00713
3.20844	1.94705
3.20645	1.97469
3.20447	1.94151
3.20249	1.86606
3.20051	1.77843
3.19854	1.75673
3.19657	1.82359
3.1946	1.8476
3.19263	1.79474
3.19067	1.67571
3.1887	1.6036
3.18674	1.76889
3.18479	1.84527
3.18283	1.86503
3.18088	1.81212
3.17893	1.70029
3.17698	1.72864
3.17504	1.87523
3.17309	1.88678
3.17115	1.81712
3.16921	1.81507
3.16728	1.78173
3.16534	1.68674
3.16341	1.70853
3.16148	1.63051
3.15956	1.4994
3.15763	1.6087
3.15571	1.75473
3.15379	1.74398
3.15187	1.69201
3.14996	1.70057
3.14805	1.68692
3.14614	1.65986
3.14423	1.67467
3.14232	1.70269
3.14042	1.74549
3.13852	1.63021
3.13662	1.51012
3.13472	1.59619
3.13283	1.74269
3.13094	1.69521
3.12905	1.6834
3.12716	1.67046
3.12528	1.67048
3.12339	1.67752
3.12151	1.52318
3.11964	1.47235
3.11776	1.52949
3.11589	1.73228
3.11401	1.79427
3.11214	1.64028
3.11028	1.57742
3.10841	1.61485
3.10655	1.53863
3.10469	1.5311
3.10283	1.55875
3.10098	1.55527
3.09912	1.52199
3.09727	1.50993
3.09542	1.57918
3.09358	1.61379
3.09173	1.50326
3.08989	1.48191
3.08805	1.41584
3.08621	1.40912
3.08437	1.432
3.08254	1.47555
3.08071	1.50522
3.07888	1.60867
3.07705	1.61015
3.07523	1.55755
3.0734	1.45012
3.07158	1.45341
3.06977	1.63403
3.06795	1.63917
3.06613	1.52524
3.06432	1.41096
3.06251	1.42887
3.0607	1.46902
3.0589	1.46571
3.0571	1.52282
3.05529	1.66027
3.05349	1.65338
3.0517	1.5653
3.0499	1.56157
3.04811	1.52945
3.04632	1.43055
3.04453	1.44492
3.04274	1.47625
3.04096	1.47708
3.03918	1.4391
3.0374	1.49029
3.03562	1.41228
3.03384	1.36782
3.03207	1.42798
3.03029	1.46875
3.02852	1.46178
3.02676	1.42376
3.02499	1.52861
3.02323	1.4939
3.02146	1.44347
3.0197	1.47298
3.01795	1.44558
3.01619	1.43299
3.01444	1.43275
3.01269	1.4132
3.01094	1.35529
3.00919	1.4262
3.00744	1.45749
3.0057	1.38969
3.00396	1.39962
3.00222	1.4436
3.00048	1.48594
2.99875	1.55844
2.99701	1.6205
2.99528	1.53814
2.99355	1.41523
2.99183	1.40265
2.9901	1.47957
2.98838	1.40008
2.98666	1.38469
2.98494	1.40325
2.98322	1.33084
2.9815	1.29349
2.97979	1.34893
2.97808	1.52794
2.97637	1.64846
2.97466	1.61169
2.97295	1.54841
2.97125	1.36631
2.96955	1.30703
2.96785	1.26298
2.96615	1.29196
2.96446	1.46289
2.96276	1.51658
2.96107	1.3934
2.95938	1.29678
2.95769	1.31161
2.95601	1.30757
2.95432	1.234
2.95264	1.36204
2.95096	1.50811
2.94928	1.51347
2.9476	1.30259
2.94593	1.34776
2.94425	1.53357
2.94258	1.47442
2.94092	1.3207
2.93925	1.21086
2.93758	1.25184
2.93592	1.23364
2.93426	1.24604
2.9326	1.36545
2.93094	1.39991
2.92928	1.32044
2.92763	1.29684
2.92598	1.34552
2.92433	1.36357
2.92268	1.40538
2.92103	1.39037
2.91939	1.40998
2.91775	1.37114
2.9161	1.31087
2.91447	1.19004
2.91283	1.40137
2.91119	1.55234
2.90956	1.3706
2.90793	1.24833
2.9063	1.22962
2.90467	1.32127
2.90304	1.5214
2.90142	1.56148
2.89979	1.54728
2.89817	1.44291
2.89656	1.36298
2.89494	1.34599
2.89332	1.3655
2.89171	1.31608
2.8901	1.34324
2.88849	1.37168
2.88688	1.34189
2.88527	1.33714
2.88367	1.29572
2.88206	1.22953
2.88046	1.24704
2.87886	1.39545
2.87727	1.39664
2.87567	1.29592
2.87408	1.28363
2.87248	1.33452
2.87089	1.4797
2.8693	1.57501
2.86772	1.48446
2.86613	1.29611
2.86455	1.34637
2.86297	1.39692
2.86139	1.39103
2.85981	1.31966
2.85823	1.29872
2.85666	1.39033
2.85508	1.28193
2.85351	1.24006
2.85194	1.22094
2.85038	1.21435
2.84881	1.38474
2.84724	1.28631
2.84568	1.35976
2.84412	1.48191
2.84256	1.49986
2.841	1.36278
2.83945	1.23449
2.83789	1.3754
2.83634	1.47232
2.83479	1.29925
2.83324	1.10523
2.83169	1.09294
2.83015	1.15222
2.82861	1.14139
2.82706	1.18462
2.82552	1.41775
2.82398	1.38788
2.82245	1.10019
2.82091	1.15569
2.81938	1.33286
2.81784	1.2535
2.81631	1.12353
2.81479	1.0637
2.81326	1.27305
2.81173	1.39381
2.81021	1.32615
2.80869	1.25358
2.80716	1.18227
2.80565	1.06439
2.80413	1.07425
2.80261	1.11251
2.8011	1.07724
2.79959	1.06952
2.79808	1.08785
2.79657	1.17151
2.79506	1.20875
2.79355	1.08755
2.79205	1.01648
2.79055	1.00984
2.78904	0.948815
2.78754	0.892188
2.78605	1.03146
2.78455	1.26645
2.78306	1.25849
2.78156	1.05131
2.78007	1.02397
2.77858	1.20289
2.77709	1.44308
2.77561	1.437
2.77412	1.18182
2.77264	1.13967
2.77116	1.32598
2.76968	1.28498
2.7682	1.16222
2.76672	1.18199
2.76524	1.22695
2.76377	1.11248
2.7623	1.07333
2.76083	1.21521
2.75936	1.22575
2.75789	1.09635
2.75642	1.16362
2.75496	1.41296
2.7535	1.38859
2.75203	1.25338
2.75057	1.23935
2.74912	1.4246
2.74766	1.49706
2.7462	1.36735
2.74475	1.31154
2.7433	1.39
2.74185	1.56496
2.7404	1.60066
2.73895	1.53783
2.7375	1.60519
2.73606	1.59398
2.73462	1.65306
2.73318	1.76561
2.73174	1.74759
2.7303	1.75816
2.72886	1.84704
2.72742	1.90305
2.72599	1.81303
2.72456	1.88629
2.72313	2.05614
2.7217	2.27186
2.72027	2.45237
2.71884	2.47532
2.71742	2.59666
2.71599	2.62949
2.71457	2.83039
2.71315	2.99296
2.71173	3.02545
2.71032	3.13529
2.7089	3.32283
2.70748	3.54208
2.70607	3.74343
2.70466	3.72311
2.70325	3.89994
2.70184	4.32403
2.70043	4.51621
2.69903	4.56035
2.69762	4.6021
2.69622	4.70588
2.69482	4.90372
2.69342	5.34329
2.69202	5.81312
2.69062	6.28919
2.68923	7.05558
2.68783	7.81529
2.68644	8.37375
2.68505	8.85409
2.68366	9.5101
2.68227	10.3048
2.68089	10.868
2.6795	11.1953
2.67812	11.5285
2.67673	11.9368
2.67535	12.5559
2.67397	13.1165
2.6726	13.4534
2.67122	13.3289
2.66984	13.7421
2.66847	14.4467
2.6671	14.5457
2.66572	14.6876
2.66435	15.181
2.66299	15.8042
2.66162	16.0178
2.66025	16.1134
2.65889	16.2706
2.65753	16.5195
2.65616	16.6424
2.65481	16.927
2.65345	16.9696
2.65209	17.0345
2.65073	17.4786
2.64938	17.7996
2.64803	18.0692
2.64667	18.1515
2.64532	18.2729
2.64397	18.4358
2.64263	18.4892
2.64128	18.6869
2.63994	18.8998
2.63859	18.9974
2.63725	19.1322
2.63591	19.4076
2.63457	19.5429
2.63323	19.7432
2.6319	19.7562
2.63056	19.4952
2.62923	19.8318
2.62789	20.1112
2.62656	20.1075
2.62523	20.3153
2.6239	20.4825
2.62258	20.6566
2.62125	20.3661
2.61993	20.4482
2.6186	20.7872
2.61728	20.5972
2.61596	20.7996
2.61464	21.1139
2.61332	21.173
2.61201	21.3711
2.61069	21.3956
2.60938	21.3547
2.60807	21.469
2.60675	21.2851
2.60544	21.2609
2.60414	21.487
2.60283	21.6044
2.60152	21.8004
2.60022	22.058
2.59891	22.3284
2.59761	22.2294
2.59631	21.6668
2.59501	21.1944
2.59371	21.8378
2.59242	22.5281
2.59112	22.7756
2.58983	22.8068
2.58853	22.6217
2.58724	22.5554
2.58595	22.7956
2.58466	22.6982
2.58338	22.6203
2.58209	22.9973
2.5808	23.1899
2.57952	23.2899
2.57824	23.1059
2.57695	23.0347
2.57567	23.3558
2.5744	23.3652
2.57312	23.2506
2.57184	23.5049
2.57057	23.4557
2.56929	23.3037
2.56802	23.5143
2.56675	23.7779
2.56548	23.571
2.56421	23.2743
2.56294	23.2891
2.56168	23.3336
2.56041	23.5102
2.55915	23.6482
2.55789	23.7195
2.55662	23.7563
2.55536	23.9601
2.5541	23.97
2.55285	23.6948
2.55159	23.6602
2.55034	23.701
2.54908	23.7924
2.54783	23.8288
2.54658	23.966
2.54533	24.0359
2.54408	23.9844
2.54283	23.8853
2.54159	23.8545
2.54034	23.8487
2.5391	23.7557
2.53785	23.7567
2.53661	23.8576
2.53537	23.8538
2.53413	23.9344
2.53289	23.8746
2.53166	23.8845
2.53042	23.9844
2.52919	24.0081
2.52795	23.949
2.52672	23.9516
2.52549	23.9506
2.52426	23.9554
2.52303	23.9413
2.52181	23.8925
2.52058	23.98
2.51936	23.8776
2.51813	23.8644
2.51691	24.0527
2.51569	24.1847
2.51447	24.0714
2.51325	23.8452
2.51203	23.8221
2.51082	23.9266
2.5096	23.9843
2.50839	24.0974
2.50717	24.0894
2.50596	24.0715
2.50475	24.0082
2.50354	23.899
2.50233	23.8752
2.50113	23.9751
2.49992	24.0361
2.49872	24.1522
2.49751	24.2811
2.49631	24.2496
2.49511	24.1166
2.49391	24.0562
2.49271	24.1
2.49151	24.039
2.49031	24.0822
2.48912	24.2733
2.48792	24.3335
2.48673	24.2358
2.48554	24.2965
2.48435	24.4697
2.48316	24.5533
2.48197	24.6443
2.48078	24.5628
2.4796	24.5403
2.47841	24.7206
2.47723	24.7439
2.47604	24.796
2.47486	24.8462
2.47368	24.8836
2.4725	25.0466
2.47132	25.2101
2.47014	25.1647
2.46897	25.0393
2.46779	25.1008
2.46662	25.2687
2.46545	25.3794
2.46427	25.4316
2.4631	25.475
2.46193	25.5528
2.46077	25.5475
2.4596	25.4939
2.45843	25.505
2.45727	25.6507
2.4561	25.8483
2.45494	25.9868
2.45378	26.0735
2.45262	25.9854
2.45146	26.0375
2.4503	26.1638
2.44914	26.2287
2.44799	26.3019
2.44683	26.4984
2.44568	26.5411
2.44452	26.3984
2.44337	26.3486
2.44222	26.4788
2.44107	26.6388
2.43992	26.6479
2.43877	26.5189
2.43763	26.5786
2.43648	26.8737
2.43534	27.135
2.43419	27.2566
2.43305	27.4528
2.43191	27.5554
2.43077	27.5109
2.42963	27.5199
2.42849	27.5546
2.42736	27.5285
2.42622	27.5764
2.42509	27.6349
2.42395	27.7759
2.42282	27.8407
2.42169	27.8018
2.42056	27.9268
2.41943	28.1647
2.4183	28.2191
2.41717	28.1807
2.41605	28.1381
2.41492	28.1137
2.4138	28.1107
2.41267	27.9846
2.41155	28.0092
2.41043	27.9005
2.40931	27.9858
2.40819	28.1108
2.40707	28.1163
2.40595	28.0639
2.40484	27.8732
2.40372	27.843
2.40261	27.9497
2.4015	27.9486
2.40039	27.7828
2.39928	27.6339
2.39817	27.5591
2.39706	27.5433
2.39595	27.451
2.39484	27.4086
2.39374	27.3624
2.39263	27.1128
2.39153	26.8778
2.39043	26.8553
2.38932	26.77
2.38822	26.6045
2.38712	26.4663
2.38603	26.1822
2.38493	25.9582
2.38383	25.8981
2.38274	25.8447
2.38164	25.6975
2.38055	25.5158
2.37946	25.2953
2.37836	25.1504
2.37727	24.9727
2.37618	24.8061
2.3751	24.7143
2.37401	24.6277
2.37292	24.4491
2.37184	24.2545
2.37075	24.2457
2.36967	24.2754
2.36859	24.0625
2.3675	23.9919
2.36642	24.0155
2.36534	24.0911
2.36427	24.0892
2.36319	24.0894
2.36211	24.2475
2.36104	24.2569
2.35996	24.3346
2.35889	24.5024
2.35781	24.4914
2.35674	24.4527
2.35567	24.5928
2.3546	24.7279
2.35353	24.8399
2.35247	25.0176
2.3514	25.2832
2.35033	25.414
2.34927	25.3545
2.3482	25.2757
2.34714	25.2325
2.34608	25.418
2.34502	25.6104
2.34396	25.6034
2.3429	25.6447
2.34184	25.7468
2.34078	25.9172
2.33973	26.1017
2.33867	26.0246
2.33762	25.8818
2.33656	25.9415
2.33551	26.0818
2.33446	25.9104
2.33341	25.8905
2.33236	25.891
2.33131	25.685
2.33026	25.5854
2.32922	25.4427
2.32817	25.2474
2.32712	25.1067
2.32608	24.9194
2.32504	24.5702
2.324	24.3097
2.32295	24.0368
2.32191	23.8369
2.32087	23.659
2.31984	23.4278
2.3188	23.2203
2.31776	22.9995
2.31673	22.8442
2.31569	22.5749
2.31466	22.3417
2.31362	22.4317
2.31259	22.4367
2.31156	22.528
2.31053	22.5161
2.3095	22.4576
2.30847	22.3987
2.30745	22.4171
2.30642	22.6765
2.3054	22.8591
2.30437	22.8758
2.30335	23.0549
2.30232	23.5133
2.3013	23.6423
2.30028	23.6851
2.29926	23.9895
2.29824	24.2393
2.29722	24.3993
2.29621	24.61
2.29519	24.8576
2.29417	25.1784
2.29316	25.5978
2.29215	25.9267
2.29113	26.0648
2.29012	26.2675
2.28911	26.6174
2.2881	26.9001
2.28709	27.0986
2.28608	27.4183
2.28507	27.8524
2.28407	28.1745
2.28306	28.2873
2.28206	28.4505
2.28105	28.6916
2.28005	28.8843
2.27905	28.981
2.27805	28.7586
2.27705	28.5875
2.27605	28.6446
2.27505	28.7261
2.27405	28.6664
2.27305	28.5766
2.27206	28.5491
2.27106	28.5697
2.27007	28.531
2.26907	28.5636
2.26808	28.5855
2.26709	28.5858
2.2661	28.6125
2.26511	28.5044
2.26412	28.294
2.26313	28.2896
2.26214	28.2921
2.26116	28.2205
2.26017	28.2646
2.25919	28.3852
2.2582	28.2376
2.25722	28.1537
2.25624	28.2326
2.25526	28.3271
2.25428	28.3089
2.2533	28.2508
2.25232	28.2273
2.25134	28.3491
2.25036	28.4434
2.24939	28.3662
2.24841	28.3308
2.24744	28.3892
2.24646	28.4308
2.24549	28.5488
2.24452	28.6128
2.24355	28.7543
2.24257	28.8464
2.24161	28.9128
2.24064	28.993
2.23967	29.188
2.2387	29.3496
2.23774	29.3646
2.23677	29.4502
2.23581	29.4332
2.23484	29.4186
2.23388	29.6104
2.23292	29.9226
2.23196	30.0073
2.231	30.0814
2.23004	30.2095
2.22908	30.2288
2.22812	30.3681
2.22716	30.4898
2.22621	30.4563
2.22525	30.304
2.2243	30.3325
2.22334	30.5635
2.22239	30.689
2.22144	30.7428
2.22049	30.7944
2.21953	30.7113
2.21859	30.6329
2.21764	30.8908
2.21669	31.0003
2.21574	30.9068
2.21479	30.8624
2.21385	30.8692
2.2129	30.9452
2.21196	31.0095
2.21102	31.0494
2.21007	30.9533
2.20913	31.0158
2.20819	31.0302
2.20725	30.9463
2.20631	30.8794
2.20537	30.8566
2.20444	30.8933
2.2035	30.8888
2.20256	30.8232
2.20163	30.8907
2.20069	31.0983
2.19976	31.1363
2.19883	31.1245
2.19789	31.1635
2.19696	31.1921
2.19603	31.1999
2.1951	31.2178
2.19417	31.1056
2.19325	30.9957
2.19232	31.0337
2.19139	31.0854
2.19047	31.0159
2.18954	31.0033
2.18862	31.1251
2.18769	31.2813
2.18677	31.3577
2.18585	31.1911
2.18493	30.962
2.18401	31.1175
2.18309	31.3889
2.18217	31.4173
2.18125	31.2957
2.18033	31.2065
2.17942	31.1954
2.1785	31.2181
2.17759	31.2298
2.17667	31.3225
2.17576	31.2358
2.17485	31.1596
2.17393	31.1486
2.17302	31.0155
2.17211	31.1509
2.1712	31.2824
2.17029	31.2091
2.16939	31.0667
2.16848	31.146
2.16757	31.1238
2.16667	31.123
2.16576	31.024
2.16486	30.9335
2.16395	30.8855
2.16305	30.9103
2.16215	30.9879
2.16125	31.0378
2.16035	30.9969
2.15945	30.9981
2.15855	31.0853
2.15765	31.0876
2.15675	30.9964
2.15586	30.8029
2.15496	30.8307
2.15406	30.9785
2.15317	30.9212
2.15228	30.9577
2.15138	31.0547
2.15049	30.8885
2.1496	30.8677
2.14871	30.8295
2.14782	30.7982
2.14693	30.7797
2.14604	30.507
2.14515	30.3402
2.14427	30.4615
2.14338	30.7731
2.14249	30.8427
2.14161	30.622
2.14072	30.7795
2.13984	30.8212
2.13896	30.6763
2.13808	30.5348
2.13719	30.553
2.13631	30.5276
2.13543	30.3717
2.13455	30.4057
2.13368	30.7105
2.1328	30.7467
2.13192	30.4444
2.13105	30.3652
2.13017	30.2725
2.1293	30.3483
2.12842	30.4655
2.12755	30.4262
2.12668	30.4094
2.1258	30.337
2.12493	30.0999
2.12406	29.9709
2.12319	30.0162
2.12232	29.9051
2.12145	30.021
2.12059	30.0241
2.11972	29.9942
2.11885	29.9409
2.11799	29.9383
2.11712	29.7469
2.11626	29.6673
2.1154	29.9017
2.11453	29.9592
2.11367	29.7375
2.11281	29.7215
2.11195	29.8778
2.11109	29.7718
2.11023	29.501
2.10937	29.6335
2.10851	29.844
2.10766	29.9074
2.1068	29.8228
2.10594	29.5
2.10509	29.3552
2.10423	29.556
2.10338	29.4477
2.10253	29.1689
2.10168	29.0528
2.10082	29.3032
2.09997	29.1835
2.09912	29.0341
2.09827	29.1135
2.09742	29.0651
2.09658	28.8812
2.09573	28.9174
2.09488	29.0916
2.09404	28.9715
2.09319	29.0038
2.09235	29.0294
2.0915	28.6919
2.09066	28.5712
2.08982	28.4869
2.08897	28.5146
2.08813	28.7341
2.08729	28.6146
2.08645	28.4867
2.08561	28.6238
2.08477	28.7856
2.08394	28.6694
2.0831	28.718
2.08226	28.5537
2.08143	28.3788
2.08059	28.2973
2.07976	28.3265
2.07892	28.2389
2.07809	28.0676
2.07726	28.3739
2.07643	28.4945
2.07559	27.9046
2.07476	27.6076
2.07393	28.1081
2.0731	28.1365
2.07228	28.305
2.07145	28.3289
2.07062	27.6267
2.06979	27.6064
2.06897	27.7196
2.06814	27.6611
2.06732	27.9356
2.06649	27.9437
2.06567	27.6621
2.06485	27.3409
2.06403	27.4261
2.0632	27.5985
2.06238	27.3431
2.06156	26.8578
2.06074	26.9816
2.05993	27.192
2.05911	27.0935
2.05829	27.1675
2.05747	27.2214
2.05666	27.1105
2.05584	26.9529
2.05503	26.9247
2.05421	26.9445
2.0534	26.7329
2.05259	26.5401
2.05177	26.5938
2.05096	26.6036
2.05015	26.5919
2.04934	26.7506
2.04853	26.7878
2.04772	26.4524
2.04691	26.3534
2.04611	26.4028
2.0453	26.5237
2.04449	26.5503
2.04369	26.3247
2.04288	26.2893
2.04208	26.1907
2.04127	25.975
2.04047	26.0019
2.03967	26.1481
2.03886	26.2544
2.03806	26.0557
2.03726	25.7585
2.03646	25.7937
2.03566	25.9067
2.03486	25.8642
2.03407	25.6602
2.03327	25.3457
2.03247	25.4624
2.03167	25.8828
2.03088	25.7931
2.03008	25.3753
2.02929	25.2012
2.0285	25.2021
2.0277	25.3081
2.02691	25.2859
2.02612	25.1629
2.02533	25.1919
2.02453	25.3639
2.02374	25.3491
2.02295	24.9319
2.02217	24.7791
2.02138	24.9116
2.02059	24.9045
2.0198	24.8026
2.01902	24.8132
2.01823	24.751
2.01744	24.7671
2.01666	24.9392
2.01588	25.0493
2.01509	24.6113
2.01431	24.2417
2.01353	24.2476
2.01275	24.3144
2.01196	24.2667
2.01118	24.0572
2.0104	23.9533
2.00963	24.0641
2.00885	24.199
2.00807	24.182
2.00729	24.0163
2.00651	23.8697
2.00574	23.7595
2.00496	23.9395
2.00419	23.8013
2.00341	23.6638
2.00264	23.7639
2.00187	23.9284
2.00109	23.8443
2.00032	23.5581
