Name: Cookeite LiAl_4(Si_3Al)O_10(OH)_8
Type: Mineral
Class: Silicates
Subclass: Phyllosilicates
Particle Size: 0-45um
Sample No.: PS-9A
Owner: JPL
Wavelength range: IR
Origin: USA, Arkansas, Pulaski County
Collected by JPL
Description: 





Measurement: Hemispherical reflectance
First Column: X
Second Column: Y
X Units:  Wavelength (micrometers)
Y Units:  Reflectance (percent)
First X Value: 15.3853
Last X Value: 2.00032
Number of X Values: 2256
Additional information: ps09aa.txt
 
15.3853	2.0725
15.3397	2.17764
15.2945	2.19222
15.2495	2.23933
15.2048	2.11094
15.1603	1.901
15.1161	1.86184
15.0722	1.9542
15.0285	2.07013
14.9851	2.08784
14.9419	1.85105
14.8989	1.64087
14.8563	1.65427
14.8138	1.98153
14.7716	2.08222
14.7296	2.01565
14.6879	1.95178
14.6464	2.03429
14.6052	2.03179
14.5641	1.90928
14.5233	1.66213
14.4828	1.6851
14.4424	1.69014
14.4023	1.68322
14.3624	1.66456
14.3227	1.61616
14.2833	1.74499
14.244	1.67814
14.205	1.6926
14.1662	1.68613
14.1276	1.63882
14.0892	1.80576
14.051	1.88831
14.0131	1.88578
13.9753	1.97144
13.9377	2.15945
13.9004	2.14732
13.8632	2.05509
13.8262	1.91974
13.7895	1.85845
13.7529	1.90424
13.7165	2.17946
13.6803	2.42877
13.6443	2.34857
13.6085	2.22058
13.5729	2.17195
13.5374	1.9028
13.5022	1.69188
13.4671	1.83808
13.4322	1.86452
13.3975	1.89809
13.363	1.85008
13.3286	1.91937
13.2944	1.8315
13.2604	1.83588
13.2266	1.83689
13.193	1.69562
13.1595	1.69412
13.1262	1.75299
13.093	1.72174
13.06	1.65594
13.0272	1.63072
12.9946	1.624
12.9621	1.79858
12.9298	1.88143
12.8976	1.82573
12.8656	1.94774
12.8337	2.0699
12.8021	2.02683
12.7705	1.93301
12.7391	2.11569
12.7079	2.24089
12.6769	2.00603
12.6459	1.97691
12.6152	2.11106
12.5845	2.1566
12.5541	2.06042
12.5238	2.03716
12.4936	2.0019
12.4635	1.99533
12.4337	1.8883
12.4039	1.75387
12.3743	1.66995
12.3448	1.65246
12.3155	1.74769
12.2863	1.78982
12.2573	1.78433
12.2284	1.73445
12.1996	1.70875
12.171	1.7381
12.1425	1.85627
12.1141	2.14058
12.0859	2.38464
12.0578	2.45846
12.0298	2.60065
12.0019	2.762
11.9742	2.91652
11.9466	3.01359
11.9192	3.13755
11.8918	3.28418
11.8646	3.4669
11.8375	3.68822
11.8106	3.83893
11.7837	3.98754
11.757	4.24997
11.7304	4.581
11.7039	4.88235
11.6776	5.15644
11.6513	5.44798
11.6252	5.70718
11.5992	6.0508
11.5733	6.17528
11.5475	6.25129
11.5219	6.44209
11.4963	6.54048
11.4709	6.55333
11.4455	6.59789
11.4203	6.72259
11.3952	6.72896
11.3702	6.58394
11.3454	6.47448
11.3206	6.35168
11.2959	6.24953
11.2714	6.12239
11.2469	5.90459
11.2226	5.63395
11.1983	5.62253
11.1742	5.77764
11.1502	5.6937
11.1263	5.52593
11.1024	5.47305
11.0787	5.44646
11.0551	5.29826
11.0316	5.10692
11.0081	4.91482
10.9848	4.64334
10.9616	4.33618
10.9385	4.18947
10.9154	4.14538
10.8925	4.21319
10.8697	4.20941
10.8469	4.16004
10.8243	4.02905
10.8017	3.87146
10.7793	3.90473
10.7569	4.05078
10.7346	4.01489
10.7125	3.95345
10.6904	3.97074
10.6684	4.00052
10.6465	3.91651
10.6247	3.95883
10.6029	4.01388
10.5813	3.89806
10.5597	3.73015
10.5383	3.80732
10.5169	3.74218
10.4956	3.68931
10.4744	3.91161
10.4533	4.01271
10.4323	4.06246
10.4113	4.13525
10.3904	4.10001
10.3697	4.1654
10.349	4.23316
10.3284	4.25546
10.3078	4.25999
10.2874	4.40317
10.267	4.4698
10.2467	4.38684
10.2265	4.34481
10.2064	4.2272
10.1863	4.29667
10.1663	4.46993
10.1464	4.40794
10.1266	4.31999
10.1069	4.31561
10.0872	4.35759
10.0676	4.35493
10.0481	4.526
10.0287	4.65076
10.0093	4.66668
9.99005	4.7165
9.97084	4.80603
9.95169	5.01743
9.93263	5.2932
9.91364	5.37263
9.89472	5.37829
9.87587	5.58246
9.8571	5.65162
9.83839	5.59278
9.81976	5.60498
9.80119	5.58106
9.78271	5.47143
9.76428	5.41334
9.74592	5.44883
9.72764	5.4455
9.70943	5.54406
9.69128	5.57607
9.6732	5.57524
9.65518	5.6456
9.63724	5.66451
9.61935	5.51272
9.60155	5.39456
9.5838	5.45684
9.56611	5.47803
9.5485	5.6705
9.53094	5.88269
9.51345	5.98355
9.49604	6.14236
9.47867	6.25452
9.46137	6.57903
9.44414	6.93379
9.42697	7.17256
9.40986	7.33845
9.39281	7.54562
9.37583	7.53372
9.35891	7.65902
9.34204	7.91627
9.32524	8.01201
9.3085	7.93208
9.29182	7.86016
9.27519	7.77264
9.25863	7.82763
9.24213	7.97133
9.22568	8.06631
9.2093	8.04815
9.19297	7.96398
9.17669	7.95623
9.16048	7.97555
9.14433	8.01493
9.12823	7.9236
9.11218	7.86639
9.0962	7.84227
9.08027	7.78292
9.06439	7.66266
9.04858	7.65809
9.03281	7.52189
9.0171	7.14292
9.00145	6.88001
8.98585	6.76131
8.9703	6.63629
8.9548	6.78804
8.93937	7.17665
8.92398	7.30866
8.90865	7.27483
8.89337	7.26997
8.87814	7.34976
8.86296	7.39093
8.84784	7.31338
8.83277	7.32463
8.81774	7.44529
8.80277	7.42233
8.78786	7.26915
8.77298	7.31986
8.75816	7.37522
8.7434	7.25705
8.72868	7.18963
8.714	7.11249
8.69938	6.81924
8.68481	6.49732
8.67029	6.27629
8.65581	6.02374
8.64139	5.75858
8.62701	5.47931
8.61268	5.48286
8.5984	5.8613
8.58416	6.18978
8.56997	6.42012
8.55583	6.57687
8.54174	6.48431
8.52769	6.36767
8.51368	6.41198
8.49973	6.4548
8.48582	6.43821
8.47195	6.4462
8.45813	6.41456
8.44436	6.27482
8.43062	6.27108
8.41693	6.28052
8.4033	6.16522
8.3897	6.17885
8.37614	6.23137
8.36264	6.26144
8.34917	6.21214
8.33574	6.36774
8.32236	6.58544
8.30903	6.57455
8.29573	6.6172
8.28248	6.71846
8.26927	6.83404
8.2561	6.94481
8.24298	7.07269
8.2299	7.02511
8.21685	7.12016
8.20385	7.36743
8.19089	7.43244
8.17797	7.36231
8.16509	7.19024
8.15225	6.95679
8.13946	6.73223
8.1267	6.60137
8.11398	6.32975
8.10131	6.06682
8.08867	5.96834
8.07606	5.82197
8.0635	5.55422
8.05099	5.33814
8.0385	5.20602
8.02606	5.06593
8.01366	5.08376
8.00129	5.0091
7.98896	4.82625
7.97667	4.75501
7.96442	4.69447
7.9522	4.60975
7.94002	4.57851
7.92788	4.41053
7.91578	4.35367
7.90371	4.37185
7.89168	4.31972
7.87969	4.28373
7.86773	4.38411
7.85581	4.37315
7.84392	4.30189
7.83207	4.37126
7.82026	4.30711
7.80849	4.27812
7.79674	4.32551
7.78503	4.46469
7.77337	4.59386
7.76173	4.75016
7.75012	4.94879
7.73856	4.90688
7.72703	4.87222
7.71553	5.01153
7.70406	5.17744
7.69263	5.1604
7.68123	5.18779
7.66987	5.30526
7.65855	5.40493
7.64725	5.46457
7.63598	5.58747
7.62475	5.64212
7.61356	5.80234
7.60239	5.92991
7.59126	5.89299
7.58017	5.94491
7.5691	6.06877
7.55806	6.19493
7.54707	6.32035
7.5361	6.47815
7.52516	6.58428
7.51425	6.6904
7.50338	6.81448
7.49253	6.90672
7.48172	6.94496
7.47094	6.9439
7.46019	7.05713
7.44947	7.09966
7.43879	7.21794
7.42813	7.42099
7.4175	7.49959
7.4069	7.54831
7.39634	7.65873
7.3858	7.71622
7.37529	7.73564
7.36482	7.76992
7.35437	7.84711
7.34396	7.96939
7.33357	8.04419
7.32321	8.17133
7.31288	8.22113
7.30258	8.2999
7.29231	8.36189
7.28207	8.35595
7.27185	8.411
7.26167	8.55496
7.25152	8.67415
7.24139	8.83554
7.23129	8.91088
7.22122	8.95394
7.21117	9.07777
7.20116	9.18531
7.19117	9.17515
7.18121	9.28807
7.17128	9.48371
7.16137	9.53291
7.1515	9.4625
7.14164	9.42684
7.13182	9.50505
7.12203	9.56782
7.11225	9.55045
7.10251	9.59445
7.0928	9.7629
7.08311	9.83651
7.07344	9.78225
7.06381	9.77676
7.0542	9.85717
7.04461	9.96739
7.03506	10.0539
7.02552	10.1761
7.01601	10.2463
7.00653	10.2617
6.99708	10.3255
6.98765	10.3821
6.97824	10.481
6.96886	10.6257
6.95951	10.8038
6.95018	10.893
6.94087	10.9746
6.9316	11.1182
6.92234	11.2748
6.91311	11.3668
6.90391	11.5098
6.89473	11.6062
6.88557	11.7258
6.87644	11.8576
6.86733	11.985
6.85824	12.1418
6.84918	12.3004
6.84015	12.3351
6.83114	12.3738
6.82215	12.4004
6.81319	12.4328
6.80424	12.5287
6.79532	12.6609
6.78643	12.8155
6.77756	12.8817
6.76871	12.9649
6.75989	13.0964
6.75109	13.1672
6.74231	13.2299
6.73355	13.2416
6.72482	13.2512
6.71611	13.3617
6.70742	13.3912
6.69875	13.4253
6.69011	13.5674
6.68149	13.7729
6.67289	13.8699
6.66431	13.9223
6.65576	14.072
6.64722	14.2241
6.63871	14.3169
6.63022	14.3146
6.62175	14.3007
6.61331	14.366
6.60488	14.3438
6.59648	14.3982
6.5881	14.4627
6.57974	14.5292
6.5714	14.5028
6.56308	14.5018
6.55478	14.5561
6.54651	14.5772
6.53825	14.646
6.53001	14.7871
6.5218	15.0072
6.51361	15.1913
6.50544	15.4458
6.49729	15.7854
6.48915	15.9263
6.48104	15.9955
6.47295	16.2101
6.46488	16.2899
6.45683	16.2986
6.4488	16.3381
6.44079	16.4436
6.4328	16.5024
6.42482	16.517
6.41687	16.6059
6.40894	16.5623
6.40103	16.4015
6.39314	16.3602
6.38526	16.3073
6.37741	16.3099
6.36957	16.3459
6.36176	16.25
6.35396	16.1457
6.34618	16.0813
6.33843	15.9136
6.33069	15.6993
6.32297	15.5792
6.31527	15.5212
6.30758	15.4548
6.29992	15.3087
6.29227	15.1718
6.28465	15.004
6.27704	14.8942
6.26945	14.8332
6.26188	14.6395
6.25432	14.4425
6.24679	14.3315
6.23927	14.2678
6.23177	14.2369
6.22429	14.1953
6.21683	14.1148
6.20938	14.0387
6.20195	13.9987
6.19454	13.9876
6.18715	14.018
6.17978	14.0181
6.17242	14.051
6.16508	14.218
6.15776	14.3566
6.15045	14.5748
6.14317	14.8421
6.1359	14.925
6.12864	15.0453
6.12141	15.3234
6.11419	15.4966
6.10699	15.5136
6.0998	15.629
6.09263	15.7592
6.08549	15.8056
6.07835	15.8509
6.07123	15.9415
6.06413	15.9305
6.05705	15.9197
6.04998	15.9997
6.04293	15.9359
6.0359	15.9423
6.02888	15.9727
6.02187	16.0308
6.01489	16.1071
6.00792	16.1414
6.00096	16.1588
5.99403	16.125
5.98711	16.0856
5.9802	16.0454
5.97331	16.0718
5.96644	16.0529
5.95958	15.9856
5.95274	15.9736
5.94591	16.0029
5.9391	16.1112
5.9323	16.2163
5.92552	16.3011
5.91876	16.4533
5.91201	16.744
5.90528	17.0462
5.89856	17.36
5.89186	17.6739
5.88517	17.8986
5.8785	18.1011
5.87184	18.329
5.8652	18.5859
5.85857	18.7991
5.85196	19.0329
5.84536	19.2622
5.83878	19.5162
5.83221	19.7419
5.82566	19.9701
5.81912	20.1426
5.81259	20.3067
5.80608	20.4748
5.79959	20.6578
5.79311	20.8918
5.78665	20.9907
5.78019	21.1617
5.77376	21.3771
5.76734	21.5454
5.76093	21.657
5.75453	21.7418
5.74815	21.8726
5.74179	21.9022
5.73543	21.9442
5.7291	22.0514
5.72277	22.2009
5.71646	22.3308
5.71017	22.3632
5.70389	22.3918
5.69762	22.3892
5.69136	22.4124
5.68513	22.4902
5.6789	22.3964
5.67268	22.2576
5.66648	22.1727
5.6603	22.0635
5.65413	21.939
5.64797	21.797
5.64182	21.6299
5.63569	21.3982
5.62957	21.1006
5.62347	20.975
5.61737	20.9341
5.61129	20.7412
5.60522	20.6416
5.59917	20.5947
5.59313	20.5045
5.5871	20.402
5.58109	20.3586
5.57509	20.3374
5.5691	20.3122
5.56312	20.3303
5.55716	20.3588
5.55121	20.421
5.54528	20.512
5.53935	20.5473
5.53344	20.6119
5.52754	20.7082
5.52166	20.7649
5.51578	20.8869
5.50992	20.9798
5.50407	21.03
5.49823	21.0653
5.49241	21.1285
5.4866	21.2065
5.4808	21.248
5.47501	21.3505
5.46923	21.5151
5.46347	21.6095
5.45772	21.6223
5.45198	21.6946
5.44625	21.731
5.44054	21.6888
5.43484	21.6099
5.42914	21.4544
5.42347	21.3167
5.4178	21.1446
5.41214	20.8736
5.4065	20.5849
5.40087	20.3275
5.39525	19.9875
5.38964	19.5865
5.38404	19.2246
5.37846	18.9866
5.37288	18.8055
5.36732	18.6712
5.36177	18.502
5.35623	18.4154
5.35071	18.4381
5.34519	18.4923
5.33968	18.5151
5.33419	18.5691
5.32871	18.6666
5.32324	18.7776
5.31778	18.8155
5.31233	18.9254
5.30689	19.1558
5.30147	19.3437
5.29605	19.5094
5.29065	19.6661
5.28525	19.8639
5.27987	20.141
5.2745	20.3742
5.26914	20.6379
5.26379	20.9173
5.25845	21.2448
5.25312	21.5697
5.24781	21.8296
5.2425	22.1438
5.23721	22.5231
5.23192	22.8854
5.22665	23.2615
5.22138	23.6078
5.21613	23.878
5.21089	24.0521
5.20566	24.1675
5.20044	24.2682
5.19522	24.4544
5.19002	24.5807
5.18483	24.6482
5.17965	24.7698
5.17448	24.8573
5.16933	24.8968
5.16418	24.9397
5.15904	25.0175
5.15391	25.0411
5.14879	25.0739
5.14368	25.1377
5.13859	25.1588
5.1335	25.2313
5.12842	25.3322
5.12335	25.3894
5.1183	25.4279
5.11325	25.5008
5.10821	25.5575
5.10318	25.5802
5.09817	25.5278
5.09316	25.5319
5.08816	25.5735
5.08317	25.5783
5.07819	25.4857
5.07322	25.4138
5.06826	25.3929
5.06331	25.405
5.05837	25.463
5.05344	25.5157
5.04852	25.5392
5.04361	25.5812
5.03871	25.6183
5.03382	25.6974
5.02894	25.7372
5.02406	25.6971
5.0192	25.7166
5.01435	25.7727
5.0095	25.8262
5.00467	25.8688
4.99984	25.9051
4.99502	25.9692
4.99021	26.0922
4.98542	26.1854
4.98063	26.3973
4.97585	26.7123
4.97108	26.9289
4.96632	27.0363
4.96156	27.2304
4.95682	27.5294
4.95209	27.6933
4.94736	27.7364
4.94264	27.7693
4.93794	27.8334
4.93324	27.9218
4.92855	28.0753
4.92387	28.1588
4.9192	28.245
4.91453	28.399
4.90988	28.6194
4.90524	28.8689
4.9006	29.0859
4.89597	29.2193
4.89135	29.3429
4.88674	29.4796
4.88214	29.6711
4.87755	29.8135
4.87296	29.8707
4.86839	29.9099
4.86382	29.8823
4.85926	29.8862
4.85471	29.9685
4.85017	29.9981
4.84564	30.0272
4.84111	30.0789
4.8366	30.0876
4.83209	30.0379
4.82759	30.0867
4.8231	30.1355
4.81862	30.1007
4.81415	30.0644
4.80968	30.0431
4.80522	30.0458
4.80077	29.9778
4.79633	29.8878
4.7919	29.9486
4.78747	29.9349
4.78306	29.9117
4.77865	29.9054
4.77425	29.9123
4.76986	29.9508
4.76547	30.0014
4.7611	30.0818
4.75673	30.1492
4.75237	30.1186
4.74802	30.0799
4.74367	30.1103
4.73934	30.1615
4.73501	30.2828
4.73069	30.4652
4.72638	30.6071
4.72207	30.6469
4.71777	30.7464
4.71348	30.9215
4.7092	30.9872
4.70493	31.0346
4.70066	31.1692
4.69641	31.2883
4.69216	31.3042
4.68791	31.4697
4.68368	31.6829
4.67945	31.7775
4.67523	31.8972
4.67102	32.1008
4.66682	32.3466
4.66262	32.5149
4.65843	32.6912
4.65425	32.864
4.65007	33.0128
4.64591	33.1365
4.64175	33.2745
4.6376	33.528
4.63345	33.806
4.62932	33.9853
4.62519	34.1742
4.62106	34.3799
4.61695	34.5173
4.61284	34.6802
4.60874	34.8243
4.60465	34.9889
4.60056	35.1408
4.59648	35.2782
4.59241	35.3896
4.58835	35.4979
4.58429	35.6998
4.58024	35.9482
4.5762	36.1255
4.57216	36.2252
4.56814	36.397
4.56411	36.5672
4.5601	36.7027
4.55609	36.8443
4.55209	37.0197
4.5481	37.1868
4.54411	37.351
4.54013	37.5128
4.53616	37.5997
4.5322	37.7228
4.52824	37.9246
4.52429	38.1147
4.52034	38.1468
4.51641	38.22
4.51247	38.3193
4.50855	38.3577
4.50463	38.5485
4.50072	38.7035
4.49682	38.8246
4.49292	38.9305
4.48903	39.0259
4.48515	39.2164
4.48127	39.3695
4.4774	39.4902
4.47354	39.6428
4.46968	39.7885
4.46584	39.9071
4.46199	40.0764
4.45815	40.1925
4.45432	40.2822
4.4505	40.4789
4.44668	40.6454
4.44287	40.7401
4.43907	40.8545
4.43527	41.0176
4.43148	41.1564
4.4277	41.2983
4.42392	41.4345
4.42015	41.5225
4.41638	41.6846
4.41262	41.8853
4.40887	42.0657
4.40513	42.2708
4.40139	42.46
4.39765	42.6526
4.39393	42.8327
4.39021	42.9877
4.38649	43.1972
4.38278	43.3643
4.37908	43.4856
4.37539	43.5604
4.3717	43.6652
4.36801	43.8136
4.36434	43.9695
4.36067	44.1158
4.357	44.2136
4.35335	44.248
4.34969	44.3083
4.34605	44.3931
4.34241	44.3927
4.33877	44.4761
4.33514	44.5939
4.33152	44.5945
4.32791	44.5973
4.3243	44.607
4.32069	44.6153
4.3171	44.635
4.31351	44.6222
4.30992	44.6478
4.30634	44.6785
4.30277	44.6306
4.2992	44.6103
4.29564	44.5968
4.29208	44.5948
4.28853	44.5865
4.28499	44.5767
4.28145	44.515
4.27792	44.494
4.27439	44.5549
4.27087	44.6112
4.26735	44.7116
4.26384	44.8831
4.26034	45.0893
4.25684	45.1879
4.25335	45.1565
4.24986	45.0548
4.24638	44.963
4.24291	44.8335
4.23944	44.8321
4.23598	44.8308
4.23252	44.913
4.22906	45.0216
4.22562	45.0271
4.22218	45.0309
4.21874	45.0944
4.21531	45.2226
4.21189	45.4041
4.20847	45.5111
4.20506	45.5476
4.20165	45.643
4.19825	45.6768
4.19485	45.6863
4.19146	45.706
4.18807	45.8007
4.18469	45.9257
4.18132	45.9239
4.17795	45.9003
4.17458	45.9121
4.17123	45.9933
4.16787	45.9944
4.16453	45.9656
4.16118	46.0099
4.15785	45.9903
4.15451	45.9285
4.15119	45.8817
4.14787	45.9387
4.14455	45.9568
4.14124	45.9631
4.13794	46.0357
4.13464	46.0706
4.13134	46.1115
4.12805	46.109
4.12477	46.085
4.12149	46.1463
4.11822	46.1273
4.11495	46.1259
4.11168	46.1489
4.10843	46.1412
4.10517	46.1478
4.10192	46.1371
4.09868	46.1554
4.09545	46.1955
4.09221	46.1757
4.08899	46.138
4.08576	46.1972
4.08255	46.167
4.07933	46.0864
4.07613	46.0736
4.07292	46.0863
4.06973	46.1271
4.06654	46.1713
4.06335	46.163
4.06017	46.157
4.05699	46.1073
4.05382	46.086
4.05065	46.0606
4.04749	46.0345
4.04433	46.1083
4.04118	46.1013
4.03803	46.0072
4.03489	46.0077
4.03175	46.0436
4.02862	46.005
4.02549	45.9423
4.02237	45.8818
4.01925	45.8763
4.01614	45.877
4.01303	45.9582
4.00993	46.0021
4.00683	45.8892
4.00373	45.8376
4.00064	45.8996
3.99756	45.8422
3.99448	45.7716
3.9914	45.8585
3.98833	45.8832
3.98527	45.8171
3.98221	45.8163
3.97915	45.7749
3.9761	45.7756
3.97305	45.8048
3.97001	45.7736
3.96697	45.7551
3.96394	45.7446
3.96091	45.7541
3.95789	45.8228
3.95487	45.8334
3.95186	45.9017
3.94885	45.9125
3.94584	45.8739
3.94284	45.8804
3.93984	45.8955
3.93685	45.8607
3.93386	45.8839
3.93088	45.9049
3.9279	45.8611
3.92493	45.8451
3.92196	45.8502
3.919	45.8301
3.91604	45.7736
3.91308	45.7805
3.91013	45.8709
3.90718	45.8743
3.90424	45.7839
3.9013	45.7482
3.89837	45.7828
3.89544	45.7832
3.89252	45.7441
3.8896	45.7673
3.88668	45.7802
3.88377	45.7106
3.88086	45.7311
3.87796	45.8236
3.87506	45.7457
3.87217	45.5736
3.86928	45.5546
3.86639	45.6491
3.86351	45.6114
3.86064	45.5589
3.85776	45.5589
3.8549	45.581
3.85203	45.6265
3.84917	45.561
3.84631	45.4805
3.84346	45.4749
3.84062	45.4293
3.83777	45.4454
3.83494	45.4256
3.8321	45.3811
3.82927	45.4166
3.82644	45.4063
3.82362	45.2996
3.82081	45.2494
3.81799	45.2769
3.81518	45.2829
3.81238	45.24
3.80958	45.1586
3.80678	45.2021
3.80399	45.1963
3.8012	45.1177
3.79841	45.0984
3.79563	45.1196
3.79286	45.1256
3.79008	45.0673
3.78731	45.0164
3.78455	44.9774
3.78179	44.9564
3.77903	44.9278
3.77628	44.873
3.77353	44.7785
3.77079	44.7832
3.76805	44.8004
3.76531	44.7262
3.76258	44.6648
3.75985	44.584
3.75713	44.5429
3.7544	44.5424
3.75169	44.5198
3.74898	44.4311
3.74627	44.4111
3.74356	44.4446
3.74086	44.4154
3.73816	44.3461
3.73547	44.1921
3.73278	44.0546
3.7301	44.0956
3.72741	44.0827
3.72474	44.0002
3.72206	43.9424
3.71939	43.9312
3.71673	43.9146
3.71406	43.8305
3.71141	43.7662
3.70875	43.7639
3.7061	43.7526
3.70345	43.6668
3.70081	43.5652
3.69817	43.4911
3.69553	43.467
3.6929	43.4082
3.69027	43.3395
3.68765	43.3383
3.68503	43.3189
3.68241	43.299
3.6798	43.2316
3.67719	43.0722
3.67458	43.0002
3.67198	43.0453
3.66938	43.0804
3.66678	43.0808
3.66419	43.0053
3.66161	42.9259
3.65902	42.8292
3.65644	42.786
3.65387	42.7678
3.65129	42.7662
3.64872	42.6773
3.64616	42.5752
3.64359	42.4878
3.64103	42.4867
3.63848	42.4666
3.63593	42.3861
3.63338	42.3504
3.63084	42.3495
3.6283	42.2792
3.62576	42.1522
3.62322	42.0713
3.62069	42.0114
3.61817	41.9428
3.61564	41.9226
3.61312	41.9042
3.61061	41.8673
3.6081	41.8464
3.60559	41.7336
3.60308	41.7005
3.60058	41.6134
3.59808	41.4728
3.59558	41.3898
3.59309	41.3143
3.59061	41.3124
3.58812	41.2938
3.58564	41.242
3.58316	41.166
3.58069	41.0056
3.57822	40.991
3.57575	41.0163
3.57328	40.946
3.57082	40.8214
3.56836	40.7479
3.56591	40.6519
3.56346	40.5788
3.56101	40.5367
3.55857	40.4323
3.55613	40.3666
3.55369	40.2278
3.55126	40.1156
3.54883	40.088
3.5464	40.0282
3.54397	39.886
3.54155	39.874
3.53914	39.8623
3.53672	39.7575
3.53431	39.6816
3.5319	39.5664
3.5295	39.4577
3.5271	39.3786
3.5247	39.2839
3.52231	39.1777
3.51991	39.0135
3.51753	38.8993
3.51514	38.8043
3.51276	38.7063
3.51038	38.7005
3.50801	38.581
3.50563	38.3763
3.50327	38.28
3.5009	38.2012
3.49854	38.129
3.49618	38.1093
3.49382	38.0825
3.49147	38.0566
3.48912	37.9851
3.48677	37.8778
3.48443	37.7995
3.48209	37.7942
3.47975	37.7759
3.47742	37.6771
3.47509	37.5987
3.47276	37.5917
3.47044	37.5175
3.46812	37.4739
3.4658	37.4371
3.46348	37.326
3.46117	37.2572
3.45886	37.2223
3.45656	37.1057
3.45425	37.0055
3.45195	36.954
3.44966	36.8517
3.44736	36.7839
3.44507	36.6529
3.44279	36.4086
3.4405	36.2035
3.43822	36.1062
3.43594	36.0418
3.43367	35.9876
3.43139	35.8587
3.42912	35.6729
3.42686	35.6176
3.42459	35.4815
3.42233	35.247
3.42007	35.1007
3.41782	35.0758
3.41557	34.9709
3.41332	34.8509
3.41108	34.778
3.40883	34.7138
3.40659	34.6908
3.40435	34.67
3.40212	34.645
3.39989	34.5872
3.39766	34.5403
3.39544	34.5057
3.39322	34.5267
3.391	34.427
3.38878	34.2335
3.38657	34.1996
3.38436	34.1607
3.38215	34.0612
3.37994	33.9189
3.37774	33.8679
3.37554	33.8711
3.37335	33.8037
3.37115	33.6275
3.36896	33.4721
3.36678	33.4308
3.36459	33.4166
3.36241	33.3883
3.36023	33.3599
3.35805	33.2188
3.35588	33.0986
3.35371	33.0138
3.35154	32.8273
3.34938	32.6752
3.34721	32.584
3.34505	32.5238
3.3429	32.4676
3.34074	32.4664
3.33859	32.395
3.33644	32.1786
3.3343	32.0993
3.33215	32.0763
3.33001	31.8801
3.32788	31.7643
3.32574	31.7668
3.32361	31.6905
3.32148	31.5384
3.31936	31.3238
3.31723	31.1778
3.31511	31.0965
3.31299	30.9905
3.31088	30.823
3.30876	30.6623
3.30665	30.4902
3.30455	30.3651
3.30244	30.3038
3.30034	30.266
3.29824	30.1322
3.29614	30.037
3.29405	29.8471
3.29196	29.6158
3.28987	29.5332
3.28778	29.4292
3.2857	29.2621
3.28362	29.1781
3.28154	29.0933
3.27946	28.9073
3.27739	28.7175
3.27532	28.5742
3.27325	28.4544
3.27119	28.3009
3.26913	28.2259
3.26707	28.1546
3.26501	27.9745
3.26295	27.7747
3.2609	27.7335
3.25885	27.6621
3.2568	27.4217
3.25476	27.2933
3.25272	27.2744
3.25068	27.1618
3.24864	27.0059
3.24661	26.9401
3.24458	26.7822
3.24255	26.6962
3.24052	26.4618
3.2385	26.2169
3.23648	26.0595
3.23446	25.9783
3.23244	25.8549
3.23043	25.7087
3.22841	25.6465
3.2264	25.545
3.2244	25.3903
3.22239	25.2018
3.22039	24.9502
3.21839	24.8295
3.2164	24.7841
3.2144	24.6449
3.21241	24.4757
3.21042	24.3563
3.20844	24.1939
3.20645	24.0606
3.20447	23.9484
3.20249	23.752
3.20051	23.6664
3.19854	23.6097
3.19657	23.3013
3.1946	23.016
3.19263	22.9528
3.19067	22.8322
3.1887	22.606
3.18674	22.3483
3.18479	22.2519
3.18283	22.1829
3.18088	22.0394
3.17893	21.8271
3.17698	21.7557
3.17504	21.6727
3.17309	21.438
3.17115	21.2063
3.16921	21.0979
3.16728	20.9428
3.16534	20.833
3.16341	20.6042
3.16148	20.2958
3.15956	20.1621
3.15763	20.0603
3.15571	19.9223
3.15379	19.7862
3.15187	19.6652
3.14996	19.492
3.14805	19.3183
3.14614	19.0252
3.14423	18.7335
3.14232	18.6002
3.14042	18.4497
3.13852	18.2909
3.13662	18.0983
3.13472	17.8575
3.13283	17.6972
3.13094	17.5771
3.12905	17.4795
3.12716	17.2445
3.12528	16.9326
3.12339	16.7282
3.12151	16.5277
3.11964	16.3198
3.11776	16.2224
3.11589	16.0697
3.11401	15.8776
3.11214	15.6982
3.11028	15.5101
3.10841	15.3333
3.10655	15.2185
3.10469	15.0895
3.10283	14.8242
3.10098	14.5558
3.09912	14.3996
3.09727	14.3051
3.09542	14.1158
3.09358	13.9403
3.09173	13.7226
3.08989	13.576
3.08805	13.4613
3.08621	13.2919
3.08437	13.0341
3.08254	12.8018
3.08071	12.6757
3.07888	12.4717
3.07705	12.3976
3.07523	12.2559
3.0734	12.0799
3.07158	11.9398
3.06977	11.7744
3.06795	11.6294
3.06613	11.606
3.06432	11.5158
3.06251	11.2648
3.0607	11.1227
3.0589	11.1224
3.0571	10.9366
3.05529	10.7067
3.05349	10.5474
3.0517	10.5394
3.0499	10.3777
3.04811	10.1575
3.04632	10.0818
3.04453	9.95953
3.04274	9.8105
3.04096	9.73869
3.03918	9.68152
3.0374	9.54261
3.03562	9.40393
3.03384	9.33224
3.03207	9.28852
3.03029	9.17702
3.02852	9.03491
3.02676	8.98266
3.02499	8.83636
3.02323	8.76478
3.02146	8.65723
3.0197	8.50343
3.01795	8.31158
3.01619	8.3652
3.01444	8.54204
3.01269	8.57667
3.01094	8.51978
3.00919	8.31402
3.00744	8.20742
3.0057	8.16876
3.00396	8.19932
3.00222	8.2865
3.00048	8.18429
2.99875	8.13495
2.99701	8.12872
2.99528	7.84737
2.99355	7.90504
2.99183	8.1568
2.9901	8.2305
2.98838	8.22396
2.98666	8.21063
2.98494	8.29896
2.98322	8.51601
2.9815	8.52913
2.97979	8.46174
2.97808	8.55786
2.97637	8.54544
2.97466	8.61565
2.97295	8.64814
2.97125	8.62424
2.96955	8.72964
2.96785	8.87359
2.96615	9.08161
2.96446	9.21554
2.96276	9.11883
2.96107	9.02954
2.95938	9.24634
2.95769	9.58042
2.95601	9.73459
2.95432	9.73858
2.95264	9.83048
2.95096	9.90566
2.94928	10.0746
2.9476	10.2985
2.94593	10.4241
2.94425	10.5497
2.94258	10.5738
2.94092	10.5433
2.93925	10.6124
2.93758	10.7205
2.93592	10.8794
2.93426	11.126
2.9326	11.2127
2.93094	11.1151
2.92928	10.9712
2.92763	10.9887
2.92598	11.0168
2.92433	10.9513
2.92268	10.9022
2.92103	10.9202
2.91939	10.8251
2.91775	10.7613
2.9161	10.8336
2.91447	10.6675
2.91283	10.4791
2.91119	10.4636
2.90956	10.4379
2.90793	10.4038
2.9063	10.3213
2.90467	10.1199
2.90304	9.9397
2.90142	9.85325
2.89979	9.73966
2.89817	9.58971
2.89656	9.45319
2.89494	9.32462
2.89332	9.24558
2.89171	9.14249
2.8901	9.04401
2.88849	9.09011
2.88688	8.92988
2.88527	8.79098
2.88367	8.68674
2.88206	8.58912
2.88046	8.4863
2.87886	8.33209
2.87727	8.18355
2.87567	8.16201
2.87408	8.11083
2.87248	8.13526
2.87089	7.95377
2.8693	7.69609
2.86772	7.52826
2.86613	7.4058
2.86455	7.43945
2.86297	7.54615
2.86139	7.59393
2.85981	7.53743
2.85823	7.23815
2.85666	7.14935
2.85508	7.24087
2.85351	7.14871
2.85194	7.08797
2.85038	7.07621
2.84881	6.96399
2.84724	7.09567
2.84568	6.97843
2.84412	6.63141
2.84256	6.70779
2.841	6.89391
2.83945	7.03496
2.83789	7.07928
2.83634	7.14653
2.83479	7.12355
2.83324	6.87886
2.83169	6.81942
2.83015	7.01536
2.82861	7.02329
2.82706	7.05173
2.82552	7.12386
2.82398	7.18774
2.82245	7.17746
2.82091	7.20668
2.81938	7.22827
2.81784	7.48811
2.81631	7.66971
2.81479	7.82736
2.81326	7.75893
2.81173	7.59865
2.81021	7.54314
2.80869	7.65824
2.80716	7.83724
2.80565	7.91711
2.80413	7.83194
2.80261	7.88344
2.8011	7.8874
2.79959	7.75547
2.79808	7.6379
2.79657	7.5666
2.79506	7.52105
2.79355	7.46053
2.79205	7.33468
2.79055	7.31394
2.78904	7.40082
2.78754	7.34207
2.78605	7.10377
2.78455	6.95992
2.78306	6.88213
2.78156	7.04132
2.78007	6.9964
2.77858	6.94303
2.77709	7.02466
2.77561	6.93337
2.77412	6.56026
2.77264	6.52204
2.77116	6.53253
2.76968	6.39733
2.7682	6.30089
2.76672	6.19074
2.76524	5.982
2.76377	5.54248
2.7623	5.00221
2.76083	4.96223
2.75936	5.21869
2.75789	5.40006
2.75642	5.42933
2.75496	5.31615
2.7535	5.18646
2.75203	5.2243
2.75057	5.22772
2.74912	5.09052
2.74766	5.00628
2.7462	4.86225
2.74475	4.66414
2.7433	4.6556
2.74185	4.69029
2.7404	4.66893
2.73895	4.71323
2.7375	4.72839
2.73606	4.81272
2.73462	4.9535
2.73318	4.80789
2.73174	4.91604
2.7303	5.18462
2.72886	5.30408
2.72742	5.34037
2.72599	5.51548
2.72456	5.79962
2.72313	6.02488
2.7217	6.2192
2.72027	6.50124
2.71884	6.76379
2.71742	7.01457
2.71599	7.30534
2.71457	7.6689
2.71315	8.09093
2.71173	8.56378
2.71032	9.15703
2.7089	9.75228
2.70748	10.1938
2.70607	10.5809
2.70466	10.9256
2.70325	11.5115
2.70184	12.4711
2.70043	13.9457
2.69903	15.803
2.69762	18.0703
2.69622	20.4897
2.69482	22.7317
2.69342	24.7916
2.69202	26.7548
2.69062	28.5824
2.68923	30.107
2.68783	31.4055
2.68644	32.6336
2.68505	33.7406
2.68366	34.6728
2.68227	35.5714
2.68089	36.3836
2.6795	37.0341
2.67812	37.4837
2.67673	37.9505
2.67535	38.4138
2.67397	38.8581
2.6726	39.2493
2.67122	39.7073
2.66984	40.127
2.66847	40.3415
2.6671	40.7922
2.66572	41.2776
2.66435	41.4174
2.66299	41.4353
2.66162	41.6619
2.66025	41.8289
2.65889	41.9976
2.65753	42.2861
2.65616	42.5176
2.65481	42.7005
2.65345	42.9609
2.65209	43.0685
2.65073	43.0324
2.64938	42.9018
2.64803	42.9839
2.64667	43.2763
2.64532	43.4673
2.64397	43.5164
2.64263	43.5437
2.64128	43.6958
2.63994	43.7489
2.63859	43.788
2.63725	43.8754
2.63591	43.8832
2.63457	43.8852
2.63323	43.9121
2.6319	43.973
2.63056	44.0215
2.62923	44.0202
2.62789	44.0808
2.62656	44.194
2.62523	44.1216
2.6239	44.2173
2.62258	44.3426
2.62125	44.3675
2.61993	44.4258
2.6186	44.4292
2.61728	44.4746
2.61596	44.4127
2.61464	44.3446
2.61332	44.4569
2.61201	44.4916
2.61069	44.501
2.60938	44.6947
2.60807	44.8793
2.60675	44.8807
2.60544	44.9888
2.60414	45.0971
2.60283	45.0008
2.60152	44.7985
2.60022	44.8686
2.59891	45.2013
2.59761	45.3425
2.59631	45.4401
2.59501	45.6265
2.59371	45.6348
2.59242	45.6192
2.59112	45.6709
2.58983	45.7284
2.58853	45.8066
2.58724	45.9929
2.58595	46.1201
2.58466	46.2597
2.58338	46.3643
2.58209	46.3178
2.5808	46.1879
2.57952	46.1957
2.57824	46.2883
2.57695	46.4151
2.57567	46.3901
2.5744	46.4213
2.57312	46.5203
2.57184	46.6027
2.57057	46.7726
2.56929	46.7797
2.56802	46.7317
2.56675	46.7223
2.56548	46.7875
2.56421	46.8705
2.56294	46.8773
2.56168	46.8837
2.56041	46.9619
2.55915	47.057
2.55789	47.0613
2.55662	46.9975
2.55536	47.0496
2.5541	47.2189
2.55285	47.2013
2.55159	47.0813
2.55034	47.1393
2.54908	47.311
2.54783	47.3976
2.54658	47.3973
2.54533	47.3707
2.54408	47.2472
2.54283	47.294
2.54159	47.4202
2.54034	47.366
2.5391	47.3556
2.53785	47.4106
2.53661	47.5194
2.53537	47.4984
2.53413	47.4028
2.53289	47.412
2.53166	47.4838
2.53042	47.6431
2.52919	47.6894
2.52795	47.7317
2.52672	47.7804
2.52549	47.7924
2.52426	47.7411
2.52303	47.7392
2.52181	47.679
2.52058	47.6429
2.51936	47.6216
2.51813	47.5797
2.51691	47.6105
2.51569	47.6254
2.51447	47.705
2.51325	47.7283
2.51203	47.6885
2.51082	47.7179
2.5096	47.7416
2.50839	47.7186
2.50717	47.7828
2.50596	47.6595
2.50475	47.5063
2.50354	47.5716
2.50233	47.717
2.50113	47.7494
2.49992	47.747
2.49872	47.6581
2.49751	47.6718
2.49631	47.6364
2.49511	47.5208
2.49391	47.5298
2.49271	47.6398
2.49151	47.6526
2.49031	47.6838
2.48912	47.7636
2.48792	47.7972
2.48673	47.7286
2.48554	47.708
2.48435	47.8091
2.48316	47.9727
2.48197	48.0564
2.48078	48.0903
2.4796	48.1312
2.47841	48.102
2.47723	47.9384
2.47604	47.8908
2.47486	47.9851
2.47368	48.1284
2.4725	48.1537
2.47132	48.1133
2.47014	48.2249
2.46897	48.3064
2.46779	48.2844
2.46662	48.2932
2.46545	48.2792
2.46427	48.2188
2.4631	48.0838
2.46193	48.1232
2.46077	48.2316
2.4596	48.2902
2.45843	48.2945
2.45727	48.3022
2.4561	48.1998
2.45494	48.1512
2.45378	48.2134
2.45262	48.1976
2.45146	48.0407
2.4503	48.0503
2.44914	48.0817
2.44799	48.0616
2.44683	48.1024
2.44568	48.0301
2.44452	47.9538
2.44337	47.9595
2.44222	48.0581
2.44107	48.1496
2.43992	48.1785
2.43877	48.1746
2.43763	48.206
2.43648	48.2301
2.43534	48.1724
2.43419	48.2751
2.43305	48.3
2.43191	48.3156
2.43077	48.4049
2.42963	48.5908
2.42849	48.6419
2.42736	48.5258
2.42622	48.5481
2.42509	48.7648
2.42395	48.8848
2.42282	48.731
2.42169	48.6595
2.42056	48.6011
2.41943	48.6012
2.4183	48.6352
2.41717	48.5806
2.41605	48.5596
2.41492	48.5467
2.4138	48.7348
2.41267	49.0258
2.41155	49.0789
2.41043	48.9052
2.40931	48.7193
2.40819	48.6015
2.40707	48.6086
2.40595	48.7898
2.40484	48.8918
2.40372	48.8061
2.40261	48.72
2.4015	48.6864
2.40039	48.5655
2.39928	48.5475
2.39817	48.6232
2.39706	48.6972
2.39595	48.6424
2.39484	48.5942
2.39374	48.5772
2.39263	48.4979
2.39153	48.3343
2.39043	48.2896
2.38932	48.3176
2.38822	48.2747
2.38712	48.3417
2.38603	48.2806
2.38493	48.0322
2.38383	47.8283
2.38274	47.8092
2.38164	47.7715
2.38055	47.6987
2.37946	47.7549
2.37836	47.8056
2.37727	47.6526
2.37618	47.5113
2.3751	47.4955
2.37401	47.5438
2.37292	47.4857
2.37184	47.3478
2.37075	47.1509
2.36967	47.1441
2.36859	47.1183
2.3675	47.0113
2.36642	47.0349
2.36534	47.0665
2.36427	46.9641
2.36319	46.908
2.36211	46.7905
2.36104	46.8099
2.35996	46.9095
2.35889	47.0526
2.35781	47.1729
2.35674	47.117
2.35567	47.0578
2.3546	47.0449
2.35353	47.1853
2.35247	47.3787
2.3514	47.5499
2.35033	47.6597
2.34927	47.7836
2.3482	47.9251
2.34714	48.0165
2.34608	48.1697
2.34502	48.2473
2.34396	48.2857
2.3429	48.3475
2.34184	48.4949
2.34078	48.5782
2.33973	48.6076
2.33867	48.6526
2.33762	48.8351
2.33656	49.0189
2.33551	49.1121
2.33446	49.2143
2.33341	49.4614
2.33236	49.5642
2.33131	49.6087
2.33026	49.6499
2.32922	49.6088
2.32817	49.5142
2.32712	49.4609
2.32608	49.4386
2.32504	49.5646
2.324	49.7533
2.32295	49.9016
2.32191	50.0228
2.32087	50.1509
2.31984	50.1392
2.3188	50.0788
2.31776	50.0078
2.31673	50.0957
2.31569	50.2968
2.31466	50.4249
2.31362	50.4278
2.31259	50.444
2.31156	50.5854
2.31053	50.6951
2.3095	50.7085
2.30847	50.706
2.30745	50.7016
2.30642	50.831
2.3054	50.9631
2.30437	50.9512
2.30335	50.7838
2.30232	50.964
2.3013	51.1677
2.30028	51.1352
2.29926	51.2245
2.29824	51.2528
2.29722	51.1744
2.29621	51.1695
2.29519	51.3066
2.29417	51.335
2.29316	51.3364
2.29215	51.4668
2.29113	51.3942
2.29012	51.3929
2.28911	51.4772
2.2881	51.5186
2.28709	51.3968
2.28608	51.4573
2.28507	51.5542
2.28407	51.513
2.28306	51.3875
2.28206	51.3706
2.28105	51.459
2.28005	51.5104
2.27905	51.5813
2.27805	51.4996
2.27705	51.3904
2.27605	51.5675
2.27505	51.5831
2.27405	51.5056
2.27305	51.5101
2.27206	51.3932
2.27106	51.2357
2.27007	51.3842
2.26907	51.499
2.26808	51.4143
2.26709	51.2748
2.2661	51.2547
2.26511	51.2947
2.26412	51.222
2.26313	51.1051
2.26214	51.124
2.26116	51.1279
2.26017	51.0453
2.25919	51.0919
2.2582	51.1126
2.25722	51.144
2.25624	51.13
2.25526	51.0991
2.25428	51.0332
2.2533	50.9086
2.25232	50.8873
2.25134	50.9864
2.25036	50.9005
2.24939	50.8825
2.24841	50.8823
2.24744	50.7861
2.24646	50.8494
2.24549	50.9337
2.24452	50.9337
2.24355	50.7898
2.24257	50.7512
2.24161	50.8092
2.24064	50.8508
2.23967	50.9753
2.2387	50.9259
2.23774	50.8171
2.23677	50.8697
2.23581	50.7384
2.23484	50.6609
2.23388	50.7419
2.23292	50.8481
2.23196	50.7537
2.231	50.6817
2.23004	50.6377
2.22908	50.5601
2.22812	50.5698
2.22716	50.5061
2.22621	50.4524
2.22525	50.2205
2.2243	50.1535
2.22334	50.2572
2.22239	50.0036
2.22144	49.8078
2.22049	49.8014
2.21953	49.7325
2.21859	49.6228
2.21764	49.6231
2.21669	49.5671
2.21574	49.5361
2.21479	49.5328
2.21385	49.3588
2.2129	49.1351
2.21196	48.9989
2.21102	49.1202
2.21007	49.1484
2.20913	49.2125
2.20819	49.3633
2.20725	49.5887
2.20631	49.5833
2.20537	49.5797
2.20444	49.6739
2.2035	49.6651
2.20256	49.7552
2.20163	49.6986
2.20069	49.6754
2.19976	49.7231
2.19883	49.7353
2.19789	49.6141
2.19696	49.6198
2.19603	49.6632
2.1951	49.5212
2.19417	49.4486
2.19325	49.3789
2.19232	49.3323
2.19139	49.3556
2.19047	49.4021
2.18954	49.3822
2.18862	49.3549
2.18769	49.4703
2.18677	49.4366
2.18585	49.3954
2.18493	49.2497
2.18401	49.1909
2.18309	49.3567
2.18217	49.5117
2.18125	49.4532
2.18033	49.3497
2.17942	49.3304
2.1785	49.4355
2.17759	49.6376
2.17667	49.5926
2.17576	49.6815
2.17485	49.8798
2.17393	49.9626
2.17302	49.9963
2.17211	49.9707
2.1712	49.9328
2.17029	49.904
2.16939	50.1187
2.16848	50.3414
2.16757	50.459
2.16667	50.5487
2.16576	50.7753
2.16486	51.0322
2.16395	51.1533
2.16305	51.1975
2.16215	51.3468
2.16125	51.3477
2.16035	51.3629
2.15945	51.6623
2.15855	51.8249
2.15765	51.9151
2.15675	52.248
2.15586	52.4184
2.15496	52.4971
2.15406	52.6636
2.15317	52.7599
2.15228	52.6887
2.15138	52.9104
2.15049	53.0496
2.1496	52.9828
2.14871	52.9574
2.14782	53.0191
2.14693	53.2061
2.14604	53.1795
2.14515	53.0082
2.14427	53.1451
2.14338	53.3553
2.14249	53.2459
2.14161	53.3142
2.14072	53.472
2.13984	53.4656
2.13896	53.56
2.13808	53.5369
2.13719	53.4864
2.13631	53.4724
2.13543	53.5257
2.13455	53.71
2.13368	53.8026
2.1328	53.8184
2.13192	53.6469
2.13105	53.4134
2.13017	53.4887
2.1293	53.8465
2.12842	53.8682
2.12755	53.7078
2.12668	53.6421
2.1258	53.6355
2.12493	53.646
2.12406	53.4869
2.12319	53.4795
2.12232	53.7292
2.12145	53.8588
2.12059	53.7571
2.11972	53.6327
2.11885	53.7266
2.11799	53.7225
2.11712	53.5454
2.11626	53.6304
2.1154	53.8574
2.11453	53.8181
2.11367	53.6441
2.11281	53.7855
2.11195	53.7277
2.11109	53.591
2.11023	53.5504
2.10937	53.6427
2.10851	53.5906
2.10766	53.4501
2.1068	53.6692
2.10594	53.9123
2.10509	54.0088
2.10423	53.9828
2.10338	53.8641
2.10253	53.7805
2.10168	53.7776
2.10082	53.8128
2.09997	53.8627
2.09912	54.0164
2.09827	53.9546
2.09742	53.638
2.09658	53.6211
2.09573	53.7698
2.09488	53.9317
2.09404	53.6384
2.09319	53.3967
2.09235	53.7273
2.0915	53.8063
2.09066	54.0574
2.08982	54.0696
2.08897	53.8074
2.08813	53.8475
2.08729	53.9476
2.08645	53.9323
2.08561	53.738
2.08477	53.7588
2.08394	53.8765
2.0831	53.9039
2.08226	53.9943
2.08143	54.1449
2.08059	54.002
2.07976	53.8254
2.07892	53.9398
2.07809	54.0809
2.07726	54.2442
2.07643	54.0465
2.07559	53.5867
2.07476	53.6637
2.07393	53.8436
2.0731	53.8418
2.07228	53.5618
2.07145	53.5423
2.07062	54.1634
2.06979	54.1677
2.06897	53.65
2.06814	53.9359
2.06732	54.3654
2.06649	54.1751
2.06567	53.9086
2.06485	53.79
2.06403	53.6443
2.0632	53.743
2.06238	54.0009
2.06156	54.3064
2.06074	54.2581
2.05993	53.949
2.05911	53.5922
2.05829	53.3455
2.05747	53.4946
2.05666	53.7107
2.05584	53.7509
2.05503	53.9667
2.05421	54.0764
2.0534	53.8906
2.05259	53.8097
2.05177	53.723
2.05096	53.6043
2.05015	53.8173
2.04934	54.1005
2.04853	53.9739
2.04772	53.7823
2.04691	53.782
2.04611	53.8531
2.0453	53.8423
2.04449	53.7247
2.04369	53.7743
2.04288	53.8299
2.04208	53.7232
2.04127	53.769
2.04047	53.7589
2.03967	53.6018
2.03886	53.7735
2.03806	54.0454
2.03726	53.9789
2.03646	53.8268
2.03566	53.9037
2.03486	53.8858
2.03407	53.7925
2.03327	53.7911
2.03247	53.7966
2.03167	53.829
2.03088	53.8472
2.03008	53.6904
2.02929	53.6662
2.0285	53.7825
2.0277	53.8186
2.02691	53.7389
2.02612	53.5076
2.02533	53.444
2.02453	53.6767
2.02374	53.8786
2.02295	53.9283
2.02217	53.9443
2.02138	53.8251
2.02059	53.7214
2.0198	53.6998
2.01902	53.7795
2.01823	53.9758
2.01744	53.9435
2.01666	53.8371
2.01588	53.7564
2.01509	53.744
2.01431	53.7942
2.01353	53.6232
2.01275	53.3531
2.01196	53.6074
2.01118	53.8521
2.0104	53.8609
2.00963	53.6843
2.00885	53.8552
2.00807	53.8882
2.00729	53.5543
2.00651	53.5705
2.00574	53.7471
2.00496	53.69
2.00419	53.5571
2.00341	53.6331
2.00264	53.8284
2.00187	53.938
2.00109	53.9695
2.00032	53.8881
