Name: Enstatite Mg_2(SiO_3)_2
Type: Mineral
Class: Silicates
Subclass: Inosilicates
Particle Size: 45-125um
Sample No.: IN-10B
Owner: JPL
Wavelength range: IR
Origin: Norway, Telemark
Collected by Burminco
Description: 





Measurement: Hemispherical reflectance
First Column: X
Second Column: Y
X Units:  Wavelength (micrometers)
Y Units:  Reflectance (percent)
First X Value: 15.3853
Last X Value: 2.00032
Number of X Values: 2256
Additional information: in10ba.txt
 
15.3853	3.08326
15.3397	3.01348
15.2945	2.76608
15.2495	2.2179
15.2048	1.80897
15.1603	1.62324
15.1161	1.63023
15.0722	1.75387
15.0285	1.81704
14.9851	1.99797
14.9419	2.28285
14.8989	2.37656
14.8563	2.43721
14.8138	2.70358
14.7716	2.78587
14.7296	2.80215
14.6879	3.17997
14.6464	3.79743
14.6052	4.03439
14.5641	4.02679
14.5233	4.3909
14.4828	4.76991
14.4424	4.41119
14.4023	3.85325
14.3624	3.18076
14.3227	2.60635
14.2833	2.36501
14.244	2.31858
14.205	2.4727
14.1662	2.65606
14.1276	2.75481
14.0892	2.5749
14.051	2.463
14.0131	2.74403
13.9753	2.9853
13.9377	3.01963
13.9004	3.15183
13.8632	3.42202
13.8262	3.48771
13.7895	3.35773
13.7529	3.20823
13.7165	3.09275
13.6803	2.7719
13.6443	2.5255
13.6085	2.53641
13.5729	2.65495
13.5374	2.75717
13.5022	2.85799
13.4671	2.97222
13.4322	2.97584
13.3975	2.85022
13.363	2.7615
13.3286	3.01856
13.2944	3.23703
13.2604	3.42899
13.2266	3.60855
13.193	3.61712
13.1595	3.78002
13.1262	3.94313
13.093	3.96857
13.06	4.00961
13.0272	4.19651
12.9946	4.26967
12.9621	4.26864
12.9298	4.30259
12.8976	4.50251
12.8656	4.80095
12.8337	4.92722
12.8021	4.97498
12.7705	5.04028
12.7391	5.0212
12.7079	4.96176
12.6769	5.09577
12.6459	5.06819
12.6152	4.81048
12.5845	4.94953
12.5541	5.27876
12.5238	5.40407
12.4936	5.35249
12.4635	5.384
12.4337	5.48835
12.4039	5.56134
12.3743	5.68565
12.3448	5.84477
12.3155	5.9017
12.2863	5.9363
12.2573	6.12494
12.2284	6.12924
12.1996	6.274
12.171	6.55812
12.1425	6.73496
12.1141	6.81213
12.0859	6.93968
12.0578	7.10188
12.0298	7.20066
12.0019	7.30632
11.9742	7.47178
11.9466	7.757
11.9192	8.13927
11.8918	8.46214
11.8646	8.73484
11.8375	9.06499
11.8106	9.48486
11.7837	9.93254
11.757	10.5471
11.7304	11.2409
11.7039	11.7255
11.6776	12.2402
11.6513	12.8393
11.6252	13.2721
11.5992	13.6086
11.5733	13.8772
11.5475	14.243
11.5219	14.5397
11.4963	14.7567
11.4709	15.0404
11.4455	15.296
11.4203	15.3484
11.3952	15.3376
11.3702	15.4102
11.3454	15.3517
11.3206	14.9903
11.2959	14.3037
11.2714	13.2469
11.2469	11.8948
11.2226	10.672
11.1983	9.61605
11.1742	9.09964
11.1502	9.02231
11.1263	9.00758
11.1024	9.13067
11.0787	9.0454
11.0551	8.77646
11.0316	8.57622
11.0081	8.39043
10.9848	8.32462
10.9616	8.53888
10.9385	9.18663
10.9154	10.1867
10.8925	11.4524
10.8697	12.6526
10.8469	13.6615
10.8243	14.483
10.8017	15.1479
10.7793	15.5305
10.7569	15.4414
10.7346	15.2937
10.7125	15.0807
10.6904	14.7329
10.6684	14.5239
10.6465	14.5834
10.6247	14.7896
10.6029	15.0827
10.5813	15.6019
10.5597	16.0453
10.5383	16.4922
10.5169	17.1189
10.4956	17.624
10.4744	17.9122
10.4533	18.2203
10.4323	18.4891
10.4113	18.4337
10.3904	17.9829
10.3697	17.3488
10.349	16.8397
10.3284	16.7059
10.3078	17.2756
10.2874	18.4798
10.267	19.8504
10.2467	20.8502
10.2265	21.3469
10.2064	21.3082
10.1863	20.7025
10.1663	19.6219
10.1464	18.4112
10.1266	17.2516
10.1069	16.3416
10.0872	15.5184
10.0676	14.4162
10.0481	13.4397
10.0287	12.7153
10.0093	12.2649
9.99005	12.4032
9.97084	12.8595
9.95169	13.201
9.93263	13.2857
9.91364	13.2762
9.89472	13.0986
9.87587	12.6195
9.8571	11.8762
9.83839	11.1519
9.81976	10.3952
9.80119	9.77878
9.78271	9.48265
9.76428	9.48561
9.74592	9.85373
9.72764	10.2945
9.70943	10.7946
9.69128	11.4089
9.6732	12.1268
9.65518	13.0848
9.63724	14.2902
9.61935	15.4243
9.60155	16.4585
9.5838	17.4436
9.56611	18.3763
9.5485	19.164
9.53094	19.8189
9.51345	20.2324
9.49604	20.3377
9.47867	20.3781
9.46137	20.2858
9.44414	20.2747
9.42697	20.1336
9.40986	19.9719
9.39281	20.0618
9.37583	20.0485
9.35891	19.881
9.34204	19.761
9.32524	19.6749
9.3085	19.322
9.29182	19.0279
9.27519	18.8567
9.25863	18.5326
9.24213	18.1748
9.22568	17.9642
9.2093	17.9074
9.19297	17.9262
9.17669	17.9644
9.16048	18.0104
9.14433	18.1235
9.12823	18.2241
9.11218	18.2483
9.0962	18.2961
9.08027	18.2727
9.06439	18.2029
9.04858	18.0485
9.03281	18.0016
9.0171	18.0393
9.00145	17.9134
8.98585	17.5863
8.9703	17.0931
8.9548	16.228
8.93937	15.1433
8.92398	14.3435
8.90865	13.7502
8.89337	13.4213
8.87814	13.5411
8.86296	13.7362
8.84784	13.4156
8.83277	12.5283
8.81774	11.4419
8.80277	10.3174
8.78786	9.18547
8.77298	8.20433
8.75816	7.45328
8.7434	6.83828
8.72868	6.46101
8.714	6.11267
8.69938	5.54402
8.68481	4.99025
8.67029	4.54716
8.65581	4.15038
8.64139	3.78828
8.62701	3.26054
8.61268	2.73788
8.5984	2.35663
8.58416	2.0855
8.56997	1.88609
8.55583	1.82364
8.54174	1.62909
8.52769	1.39357
8.51368	1.27624
8.49973	1.23553
8.48582	1.11297
8.47195	1.1035
8.45813	1.14873
8.44436	1.14974
8.43062	1.13883
8.41693	1.00614
8.4033	0.865984
8.3897	0.91409
8.37614	0.972275
8.36264	0.870038
8.34917	0.900915
8.33574	0.912111
8.32236	0.92873
8.30903	0.920337
8.29573	0.865473
8.28248	0.991058
8.26927	1.03239
8.2561	1.05878
8.24298	1.03463
8.2299	0.97311
8.21685	0.992704
8.20385	1.05547
8.19089	1.10598
8.17797	1.11775
8.16509	1.04737
8.15225	1.08262
8.13946	1.24469
8.1267	1.15031
8.11398	1.10438
8.10131	1.1725
8.08867	1.26237
8.07606	1.34123
8.0635	1.44183
8.05099	1.52076
8.0385	1.49069
8.02606	1.52606
8.01366	1.56132
8.00129	1.63041
7.98896	1.70773
7.97667	1.70882
7.96442	1.75251
7.9522	1.83923
7.94002	1.95251
7.92788	2.02575
7.91578	1.94692
7.90371	1.97076
7.89168	2.04256
7.87969	2.10758
7.86773	2.27333
7.85581	2.38337
7.84392	2.42162
7.83207	2.44101
7.82026	2.45446
7.80849	2.47244
7.79674	2.5649
7.78503	2.65031
7.77337	2.71554
7.76173	2.78586
7.75012	2.89492
7.73856	2.97797
7.72703	3.04359
7.71553	3.08159
7.70406	3.14863
7.69263	3.19942
7.68123	3.16213
7.66987	3.17671
7.65855	3.3003
7.64725	3.44428
7.63598	3.51815
7.62475	3.54033
7.61356	3.62264
7.60239	3.72543
7.59126	3.72477
7.58017	3.7242
7.5691	3.75171
7.55806	3.8174
7.54707	3.8599
7.5361	3.90231
7.52516	3.9467
7.51425	3.98328
7.50338	4.04252
7.49253	4.10124
7.48172	4.2048
7.47094	4.29873
7.46019	4.43038
7.44947	4.44746
7.43879	4.41499
7.42813	4.42747
7.4175	4.43429
7.4069	4.46555
7.39634	4.57462
7.3858	4.68186
7.37529	4.80127
7.36482	4.91487
7.35437	5.04749
7.34396	5.19301
7.33357	5.32518
7.32321	5.38598
7.31288	5.44922
7.30258	5.46472
7.29231	5.51931
7.28207	5.6817
7.27185	5.84598
7.26167	5.90223
7.25152	5.98542
7.24139	6.07382
7.23129	6.09044
7.22122	6.08892
7.21117	6.23496
7.20116	6.33756
7.19117	6.37246
7.18121	6.41003
7.17128	6.58773
7.16137	6.70144
7.1515	6.73212
7.14164	6.77953
7.13182	6.80578
7.12203	6.82189
7.11225	6.93838
7.10251	7.04473
7.0928	7.04406
7.08311	7.0103
7.07344	7.13319
7.06381	7.22464
7.0542	7.3698
7.04461	7.42681
7.03506	7.25642
7.02552	7.28587
7.01601	7.37655
7.00653	7.42177
6.99708	7.49176
6.98765	7.48583
6.97824	7.45033
6.96886	7.59222
6.95951	7.79074
6.95018	7.71819
6.94087	7.64748
6.9316	7.72722
6.92234	7.79693
6.91311	7.82237
6.90391	7.96219
6.89473	8.03639
6.88557	8.03809
6.87644	8.11
6.86733	8.39637
6.85824	8.48684
6.84918	8.30192
6.84015	8.29762
6.83114	8.45787
6.82215	8.54711
6.81319	8.44023
6.80424	8.46758
6.79532	8.72687
6.78643	8.84056
6.77756	8.68151
6.76871	8.64287
6.75989	8.65179
6.75109	8.63719
6.74231	8.62418
6.73355	8.67362
6.72482	8.69184
6.71611	8.73601
6.70742	8.78872
6.69875	8.64452
6.69011	8.59573
6.68149	8.56069
6.67289	8.47219
6.66431	8.36781
6.65576	8.28665
6.64722	8.42933
6.63871	8.57975
6.63022	8.3642
6.62175	8.15554
6.61331	8.17051
6.60488	8.26669
6.59648	8.47145
6.5881	8.60518
6.57974	8.7111
6.5714	8.87379
6.56308	8.98548
6.55478	9.12054
6.54651	9.19424
6.53825	9.1994
6.53001	9.30561
6.5218	9.45378
6.51361	9.3141
6.50544	9.41437
6.49729	9.83195
6.48915	9.79712
6.48104	9.47192
6.47295	9.37093
6.46488	9.32983
6.45683	9.31888
6.4488	9.25278
6.44079	9.22574
6.4328	9.34771
6.42482	9.3498
6.41687	9.51632
6.40894	9.29739
6.40103	8.8601
6.39314	8.59504
6.38526	8.38154
6.37741	8.31141
6.36957	8.32784
6.36176	8.033
6.35396	7.82503
6.34618	7.86929
6.33843	7.61158
6.33069	7.31476
6.32297	7.17494
6.31527	7.13454
6.30758	7.09534
6.29992	7.00112
6.29227	6.91199
6.28465	6.96834
6.27704	7.03179
6.26945	7.02389
6.26188	7.02079
6.25432	7.03707
6.24679	7.05138
6.23927	6.95203
6.23177	6.82295
6.22429	6.74207
6.21683	6.79123
6.20938	6.80511
6.20195	6.69439
6.19454	6.77209
6.18715	6.97286
6.17978	6.93043
6.17242	6.81112
6.16508	6.95998
6.15776	7.17123
6.15045	7.26694
6.14317	7.41854
6.1359	7.47853
6.12864	7.41045
6.12141	7.571
6.11419	7.79699
6.10699	7.67347
6.0998	7.53356
6.09263	7.46708
6.08549	7.40733
6.07835	7.49859
6.07123	7.6071
6.06413	7.49126
6.05705	7.54087
6.04998	7.75553
6.04293	7.59409
6.0359	7.31246
6.02888	7.25093
6.02187	7.26212
6.01489	7.36582
6.00792	7.46362
6.00096	7.57238
5.99403	7.82166
5.98711	8.061
5.9802	8.16425
5.97331	8.38998
5.96644	8.67783
5.95958	8.95831
5.95274	9.26806
5.94591	9.55438
5.9391	10.0573
5.9323	10.3778
5.92552	10.451
5.91876	10.6076
5.91201	10.661
5.90528	10.7951
5.89856	11.231
5.89186	11.2788
5.88517	11.3366
5.8785	11.443
5.87184	11.1815
5.8652	11.2096
5.85857	11.134
5.85196	10.945
5.84536	10.8659
5.83878	10.9234
5.83221	11.0435
5.82566	11.2236
5.81912	11.2231
5.81259	10.9333
5.80608	10.756
5.79959	10.7224
5.79311	10.7025
5.78665	10.7349
5.78019	10.7354
5.77376	10.8478
5.76734	11.0387
5.76093	10.859
5.75453	10.7341
5.74815	10.7827
5.74179	10.774
5.73543	10.8162
5.7291	10.9226
5.72277	11.0168
5.71646	11.113
5.71017	11.182
5.70389	11.1094
5.69762	11.1282
5.69136	11.1446
5.68513	11.1492
5.6789	11.2
5.67268	11.2084
5.66648	11.2281
5.6603	11.2979
5.65413	11.3619
5.64797	11.4461
5.64182	11.6017
5.63569	11.5186
5.62957	11.4047
5.62347	11.4202
5.61737	11.52
5.61129	11.5554
5.60522	11.5405
5.59917	11.5718
5.59313	11.6072
5.5871	11.7322
5.58109	11.9776
5.57509	12.0977
5.5691	12.1903
5.56312	12.4386
5.55716	12.6623
5.55121	12.791
5.54528	12.8793
5.53935	13.0632
5.53344	13.1505
5.52754	13.1775
5.52166	13.2116
5.51578	13.148
5.50992	13.0588
5.50407	12.9835
5.49823	12.8537
5.49241	12.7658
5.4866	12.6438
5.4808	12.6536
5.47501	12.6583
5.46923	12.5944
5.46347	12.536
5.45772	12.5444
5.45198	12.6224
5.44625	12.6074
5.44054	12.5979
5.43484	12.7272
5.42914	12.9265
5.42347	13.0952
5.4178	13.0731
5.41214	13.1029
5.4065	13.2492
5.40087	13.313
5.39525	13.4853
5.38964	13.6872
5.38404	13.7993
5.37846	13.8891
5.37288	13.9749
5.36732	14.0752
5.36177	14.1839
5.35623	14.3337
5.35071	14.4766
5.34519	14.4519
5.33968	14.3712
5.33419	14.3205
5.32871	14.2155
5.32324	14.1908
5.31778	14.1863
5.31233	14.0647
5.30689	13.8823
5.30147	13.6897
5.29605	13.5138
5.29065	13.3898
5.28525	13.284
5.27987	13.2104
5.2745	13.1142
5.26914	12.8783
5.26379	12.6797
5.25845	12.5839
5.25312	12.4867
5.24781	12.4158
5.2425	12.3867
5.23721	12.3179
5.23192	12.2346
5.22665	12.1642
5.22138	12.0959
5.21613	12.0167
5.21089	11.8508
5.20566	11.6794
5.20044	11.5474
5.19522	11.4144
5.19002	11.1944
5.18483	11.018
5.17965	10.9357
5.17448	10.8302
5.16933	10.6862
5.16418	10.5528
5.15904	10.4775
5.15391	10.3992
5.14879	10.4448
5.14368	10.5137
5.13859	10.594
5.1335	10.6955
5.12842	10.7196
5.12335	10.8302
5.1183	10.9663
5.11325	11.1039
5.10821	11.2117
5.10318	11.3068
5.09817	11.4293
5.09316	11.6053
5.08816	11.8127
5.08317	11.9794
5.07819	12.1225
5.07322	12.2521
5.06826	12.3786
5.06331	12.5492
5.05837	12.7356
5.05344	12.9109
5.04852	13.127
5.04361	13.2817
5.03871	13.3796
5.03382	13.5834
5.02894	13.7876
5.02406	13.9231
5.0192	13.9437
5.01435	14.0516
5.0095	14.1595
5.00467	14.1479
4.99984	14.215
4.99502	14.3327
4.99021	14.4325
4.98542	14.4999
4.98063	14.5895
4.97585	14.6312
4.97108	14.65
4.96632	14.7721
4.96156	14.8828
4.95682	14.9502
4.95209	14.9046
4.94736	14.8679
4.94264	14.9421
4.93794	14.9755
4.93324	14.958
4.92855	15.0125
4.92387	15.0753
4.9192	15.111
4.91453	15.0987
4.90988	15.0484
4.90524	15.045
4.9006	15.1392
4.89597	15.132
4.89135	15.0443
4.88674	14.9755
4.88214	15.022
4.87755	15.0871
4.87296	15.0762
4.86839	15.0339
4.86382	15.0482
4.85926	15.1003
4.85471	15.0951
4.85017	15.0692
4.84564	15.0554
4.84111	15.08
4.8366	15.1629
4.83209	15.2539
4.82759	15.4344
4.8231	15.5408
4.81862	15.6365
4.81415	15.7574
4.80968	15.9297
4.80522	16.0932
4.80077	16.3075
4.79633	16.4973
4.7919	16.6254
4.78747	16.762
4.78306	16.9339
4.77865	17.1955
4.77425	17.4913
4.76986	17.722
4.76547	17.8625
4.7611	17.9988
4.75673	18.2221
4.75237	18.4194
4.74802	18.5589
4.74367	18.7907
4.73934	19.0622
4.73501	19.233
4.73069	19.3886
4.72638	19.4866
4.72207	19.5348
4.71777	19.6412
4.71348	19.6905
4.7092	19.7463
4.70493	19.8947
4.70066	20.0208
4.69641	20.1527
4.69216	20.3349
4.68791	20.4273
4.68368	20.4994
4.67945	20.6311
4.67523	20.7739
4.67102	20.9494
4.66682	21.0463
4.66262	21.162
4.65843	21.324
4.65425	21.5134
4.65007	21.7484
4.64591	21.9675
4.64175	22.2139
4.6376	22.4035
4.63345	22.6223
4.62932	22.8888
4.62519	23.2172
4.62106	23.5364
4.61695	23.7462
4.61284	23.9357
4.60874	24.1638
4.60465	24.4531
4.60056	24.7174
4.59648	24.9434
4.59241	25.1863
4.58835	25.4357
4.58429	25.6619
4.58024	25.8895
4.5762	26.0669
4.57216	26.2132
4.56814	26.3568
4.56411	26.5868
4.5601	26.8215
4.55609	26.946
4.55209	27.058
4.5481	27.2503
4.54411	27.3756
4.54013	27.5089
4.53616	27.638
4.5322	27.8278
4.52824	28.0033
4.52429	28.0876
4.52034	28.2312
4.51641	28.4013
4.51247	28.447
4.50855	28.526
4.50463	28.5728
4.50072	28.5365
4.49682	28.5667
4.49292	28.6826
4.48903	28.7948
4.48515	28.8645
4.48127	28.9124
4.4774	28.9116
4.47354	28.8924
4.46968	28.8665
4.46584	28.8815
4.46199	28.9145
4.45815	28.9146
4.45432	29.0012
4.4505	29.1177
4.44668	29.1348
4.44287	29.1086
4.43907	29.1485
4.43527	29.1869
4.43148	29.2429
4.4277	29.2483
4.42392	29.3138
4.42015	29.3117
4.41638	29.3352
4.41262	29.3424
4.40887	29.3235
4.40513	29.365
4.40139	29.397
4.39765	29.3357
4.39393	29.3163
4.39021	29.4367
4.38649	29.5198
4.38278	29.4543
4.37908	29.4547
4.37539	29.4867
4.3717	29.5823
4.36801	29.6827
4.36434	29.6388
4.36067	29.5244
4.357	29.5418
4.35335	29.6295
4.34969	29.6676
4.34605	29.7055
4.34241	29.7429
4.33877	29.7201
4.33514	29.6747
4.33152	29.6874
4.32791	29.7119
4.3243	29.7287
4.32069	29.7238
4.3171	29.7673
4.31351	29.839
4.30992	29.8159
4.30634	29.8504
4.30277	29.9419
4.2992	29.9957
4.29564	30.0014
4.29208	29.9954
4.28853	29.9168
4.28499	29.8811
4.28145	29.9277
4.27792	30.0035
4.27439	30.0536
4.27087	30.056
4.26735	30.0364
4.26384	30.0995
4.26034	30.1749
4.25684	30.1536
4.25335	30.2104
4.24986	30.2997
4.24638	30.3189
4.24291	30.3091
4.23944	30.293
4.23598	30.3522
4.23252	30.3747
4.22906	30.3276
4.22562	30.3559
4.22218	30.4907
4.21874	30.5258
4.21531	30.4885
4.21189	30.5693
4.20847	30.6092
4.20506	30.6132
4.20165	30.6082
4.19825	30.5896
4.19485	30.6751
4.19146	30.7667
4.18807	30.7567
4.18469	30.7392
4.18132	30.781
4.17795	30.8248
4.17458	30.9381
4.17123	30.9587
4.16787	30.8841
4.16453	30.9004
4.16118	30.919
4.15785	30.8795
4.15451	30.9463
4.15119	30.9527
4.14787	31.0327
4.14455	31.1164
4.14124	30.9998
4.13794	30.9292
4.13464	31.0383
4.13134	31.1611
4.12805	31.2218
4.12477	31.2674
4.12149	31.2555
4.11822	31.2174
4.11495	31.2706
4.11168	31.3651
4.10843	31.3504
4.10517	31.3445
4.10192	31.3969
4.09868	31.421
4.09545	31.3987
4.09221	31.4194
4.08899	31.456
4.08576	31.4725
4.08255	31.5275
4.07933	31.5756
4.07613	31.6208
4.07292	31.5947
4.06973	31.6453
4.06654	31.7012
4.06335	31.7274
4.06017	31.7224
4.05699	31.6901
4.05382	31.7451
4.05065	31.8184
4.04749	31.7808
4.04433	31.7765
4.04118	31.8599
4.03803	31.8594
4.03489	31.9162
4.03175	31.9982
4.02862	31.9955
4.02549	31.9844
4.02237	32.0291
4.01925	32.0686
4.01614	32.0206
4.01303	31.9197
4.00993	31.9972
4.00683	32.1254
4.00373	32.1537
4.00064	32.1369
3.99756	32.1215
3.99448	32.1239
3.9914	32.1236
3.98833	32.1023
3.98527	32.1512
3.98221	32.273
3.97915	32.2597
3.9761	32.2224
3.97305	32.2767
3.97001	32.2763
3.96697	32.2768
3.96394	32.2888
3.96091	32.3214
3.95789	32.3091
3.95487	32.2976
3.95186	32.3567
3.94885	32.3451
3.94584	32.3256
3.94284	32.3892
3.93984	32.3989
3.93685	32.4572
3.93386	32.5262
3.93088	32.4908
3.9279	32.4842
3.92493	32.5254
3.92196	32.6207
3.919	32.674
3.91604	32.6109
3.91308	32.5449
3.91013	32.5649
3.90718	32.6328
3.90424	32.7611
3.9013	32.8243
3.89837	32.8587
3.89544	32.8667
3.89252	32.8918
3.8896	32.984
3.88668	32.9937
3.88377	32.9278
3.88086	32.9414
3.87796	33.0449
3.87506	33.0692
3.87217	33.0472
3.86928	33.126
3.86639	33.1072
3.86351	33.0672
3.86064	33.0713
3.85776	33.0717
3.8549	33.1096
3.85203	33.2087
3.84917	33.2457
3.84631	33.1904
3.84346	33.2007
3.84062	33.2882
3.83777	33.3062
3.83494	33.2689
3.8321	33.2187
3.82927	33.2066
3.82644	33.3034
3.82362	33.3788
3.82081	33.4196
3.81799	33.4521
3.81518	33.4713
3.81238	33.5165
3.80958	33.5494
3.80678	33.5005
3.80399	33.4344
3.8012	33.476
3.79841	33.5385
3.79563	33.5956
3.79286	33.6136
3.79008	33.6615
3.78731	33.7107
3.78455	33.6977
3.78179	33.6167
3.77903	33.5828
3.77628	33.6415
3.77353	33.7717
3.77079	33.867
3.76805	33.9293
3.76531	33.9362
3.76258	33.9234
3.75985	33.919
3.75713	33.9215
3.7544	33.9685
3.75169	34.0035
3.74898	33.9353
3.74627	33.9077
3.74356	33.9663
3.74086	34.0354
3.73816	34.0452
3.73547	34.0665
3.73278	34.1475
3.7301	34.1805
3.72741	34.1495
3.72474	34.1264
3.72206	34.1574
3.71939	34.2007
3.71673	34.2322
3.71406	34.2304
3.71141	34.1892
3.70875	34.1805
3.7061	34.2709
3.70345	34.3227
3.70081	34.2508
3.69817	34.2067
3.69553	34.2799
3.6929	34.3986
3.69027	34.4346
3.68765	34.4034
3.68503	34.3687
3.68241	34.3976
3.6798	34.4145
3.67719	34.382
3.67458	34.4091
3.67198	34.4587
3.66938	34.4512
3.66678	34.4894
3.66419	34.4963
3.66161	34.5277
3.65902	34.5785
3.65644	34.5554
3.65387	34.5341
3.65129	34.5536
3.64872	34.5229
3.64616	34.519
3.64359	34.5946
3.64103	34.629
3.63848	34.6304
3.63593	34.7136
3.63338	34.7828
3.63084	34.7589
3.6283	34.7927
3.62576	34.7507
3.62322	34.7643
3.62069	34.8173
3.61817	34.7285
3.61564	34.692
3.61312	34.7778
3.61061	34.8027
3.6081	34.8266
3.60559	34.8718
3.60308	34.9234
3.60058	34.8992
3.59808	34.8868
3.59558	34.9437
3.59309	34.9931
3.59061	35.0122
3.58812	34.9989
3.58564	34.9953
3.58316	35.0056
3.58069	35.0442
3.57822	35.0903
3.57575	35.1367
3.57328	35.1429
3.57082	35.0664
3.56836	35.064
3.56591	35.0713
3.56346	35.031
3.56101	35.0217
3.55857	35.0578
3.55613	35.0586
3.55369	35.1114
3.55126	35.1535
3.54883	35.1377
3.5464	35.1571
3.54397	35.1834
3.54155	35.2434
3.53914	35.2437
3.53672	35.2154
3.53431	35.1808
3.5319	35.118
3.5295	35.1037
3.5271	35.152
3.5247	35.1735
3.52231	35.1599
3.51991	35.1925
3.51753	35.2062
3.51514	35.1195
3.51276	35.0961
3.51038	35.1725
3.50801	35.1028
3.50563	35.0142
3.50327	34.9988
3.5009	35.0456
3.49854	35.1033
3.49618	35.0469
3.49382	35.0198
3.49147	35.1062
3.48912	35.1169
3.48677	35.1054
3.48443	35.1015
3.48209	35.0495
3.47975	35.0374
3.47742	35.0439
3.47509	35.0327
3.47276	35.1365
3.47044	35.199
3.46812	35.1202
3.4658	35.0968
3.46348	35.1295
3.46117	35.1678
3.45886	35.1631
3.45656	35.0774
3.45425	34.9915
3.45195	34.979
3.44966	35.0659
3.44736	35.0594
3.44507	35.0305
3.44279	35.0513
3.4405	35.0094
3.43822	35.0577
3.43594	35.084
3.43367	35.0188
3.43139	34.9788
3.42912	34.9511
3.42686	34.8714
3.42459	34.7868
3.42233	34.7442
3.42007	34.8042
3.41782	34.8759
3.41557	34.7595
3.41332	34.6426
3.41108	34.6934
3.40883	34.8113
3.40659	34.8363
3.40435	34.8376
3.40212	34.9046
3.39989	34.9102
3.39766	34.8457
3.39544	34.8148
3.39322	34.8275
3.391	34.8432
3.38878	34.9132
3.38657	34.8547
3.38436	34.7509
3.38215	34.7976
3.37994	34.8142
3.37774	34.8017
3.37554	34.7732
3.37335	34.8143
3.37115	34.7963
3.36896	34.801
3.36678	34.8547
3.36459	34.8416
3.36241	34.8673
3.36023	34.8486
3.35805	34.723
3.35588	34.6463
3.35371	34.6734
3.35154	34.6824
3.34938	34.6283
3.34721	34.5894
3.34505	34.6391
3.3429	34.7673
3.34074	34.8317
3.33859	34.8341
3.33644	34.8553
3.3343	34.783
3.33215	34.7105
3.33001	34.6802
3.32788	34.7416
3.32574	34.7509
3.32361	34.801
3.32148	34.8496
3.31936	34.8073
3.31723	34.7843
3.31511	34.8056
3.31299	34.8923
3.31088	34.8952
3.30876	34.7975
3.30665	34.8318
3.30455	34.8534
3.30244	34.7893
3.30034	34.7693
3.29824	34.8667
3.29614	34.9086
3.29405	34.9483
3.29196	34.8538
3.28987	34.8133
3.28778	34.8949
3.2857	34.9113
3.28362	34.8399
3.28154	34.8528
3.27946	34.8142
3.27739	34.7468
3.27532	34.7548
3.27325	34.7662
3.27119	34.7688
3.26913	34.7851
3.26707	34.8003
3.26501	34.7342
3.26295	34.6529
3.2609	34.6647
3.25885	34.7385
3.2568	34.7009
3.25476	34.6711
3.25272	34.6296
3.25068	34.6323
3.24864	34.7059
3.24661	34.7771
3.24458	34.8268
3.24255	34.7013
3.24052	34.6269
3.2385	34.6485
3.23648	34.6492
3.23446	34.546
3.23244	34.3967
3.23043	34.4651
3.22841	34.5131
3.2264	34.5726
3.2244	34.5693
3.22239	34.5085
3.22039	34.4389
3.21839	34.4195
3.2164	34.4579
3.2144	34.4033
3.21241	34.2818
3.21042	34.256
3.20844	34.4031
3.20645	34.4819
3.20447	34.4169
3.20249	34.322
3.20051	34.2257
3.19854	34.1618
3.19657	34.1606
3.1946	34.082
3.19263	34.1593
3.19067	34.2257
3.1887	34.1605
3.18674	34.0812
3.18479	34.0583
3.18283	34.096
3.18088	34.059
3.17893	34.0309
3.17698	34.0142
3.17504	33.989
3.17309	34.0392
3.17115	34.0149
3.16921	33.9892
3.16728	33.9939
3.16534	33.9146
3.16341	33.9105
3.16148	33.8568
3.15956	33.7928
3.15763	33.8199
3.15571	33.851
3.15379	33.7775
3.15187	33.7963
3.14996	33.8472
3.14805	33.9055
3.14614	33.9076
3.14423	33.7955
3.14232	33.6691
3.14042	33.6874
3.13852	33.7449
3.13662	33.7264
3.13472	33.6609
3.13283	33.6838
3.13094	33.7317
3.12905	33.6483
3.12716	33.663
3.12528	33.7247
3.12339	33.7224
3.12151	33.5811
3.11964	33.5372
3.11776	33.492
3.11589	33.4472
3.11401	33.4297
3.11214	33.4009
3.11028	33.4552
3.10841	33.4684
3.10655	33.3849
3.10469	33.3454
3.10283	33.4191
3.10098	33.3825
3.09912	33.3387
3.09727	33.2708
3.09542	33.2641
3.09358	33.2717
3.09173	33.2582
3.08989	33.2311
3.08805	33.2388
3.08621	33.2728
3.08437	33.2434
3.08254	33.1864
3.08071	33.1706
3.07888	33.1995
3.07705	33.2309
3.07523	33.1564
3.0734	33.1072
3.07158	33.1767
3.06977	33.1879
3.06795	33.0456
3.06613	32.9646
3.06432	33.0244
3.06251	33.1008
3.0607	33.0256
3.0589	33.044
3.0571	33.0336
3.05529	33.0212
3.05349	33.0399
3.0517	33.1107
3.0499	33.1287
3.04811	33.0561
3.04632	33.0742
3.04453	33.0568
3.04274	32.893
3.04096	32.9135
3.03918	32.9631
3.0374	32.8059
3.03562	32.7646
3.03384	32.8359
3.03207	32.8863
3.03029	32.8979
3.02852	32.8708
3.02676	32.9285
3.02499	32.7059
3.02323	32.6571
3.02146	32.7686
3.0197	32.7922
3.01795	32.7531
3.01619	32.6208
3.01444	32.6111
3.01269	32.6508
3.01094	32.6371
3.00919	32.5346
3.00744	32.4479
3.0057	32.5202
3.00396	32.637
3.00222	32.5351
3.00048	32.4254
2.99875	32.4611
2.99701	32.492
2.99528	32.4954
2.99355	32.3878
2.99183	32.3399
2.9901	32.2896
2.98838	32.1979
2.98666	32.1363
2.98494	32.1677
2.98322	32.2203
2.9815	32.1763
2.97979	32.1144
2.97808	32.1286
2.97637	32.1954
2.97466	32.0928
2.97295	32.0221
2.97125	32.0318
2.96955	32.0554
2.96785	32.0088
2.96615	31.889
2.96446	31.8899
2.96276	31.9692
2.96107	31.9313
2.95938	31.9425
2.95769	32.0382
2.95601	32.082
2.95432	31.9356
2.95264	31.9052
2.95096	31.9764
2.94928	31.9088
2.9476	31.8005
2.94593	31.7671
2.94425	31.8104
2.94258	31.7581
2.94092	31.668
2.93925	31.6249
2.93758	31.7325
2.93592	31.7861
2.93426	31.7086
2.9326	31.6238
2.93094	31.6476
2.92928	31.7729
2.92763	31.7773
2.92598	31.7308
2.92433	31.7081
2.92268	31.6949
2.92103	31.662
2.91939	31.6675
2.91775	31.6445
2.9161	31.5917
2.91447	31.6486
2.91283	31.6152
2.91119	31.5504
2.90956	31.4614
2.90793	31.4648
2.9063	31.5097
2.90467	31.6058
2.90304	31.6192
2.90142	31.5149
2.89979	31.4222
2.89817	31.4291
2.89656	31.489
2.89494	31.427
2.89332	31.3182
2.89171	31.2866
2.8901	31.3287
2.88849	31.1455
2.88688	31.1576
2.88527	31.2659
2.88367	31.3584
2.88206	31.3891
2.88046	31.3254
2.87886	31.3884
2.87727	31.3919
2.87567	31.3225
2.87408	31.2586
2.87248	31.1356
2.87089	31.16
2.8693	31.275
2.86772	31.1601
2.86613	31.0549
2.86455	31.0554
2.86297	30.8966
2.86139	30.8867
2.85981	31.0085
2.85823	30.924
2.85666	30.8407
2.85508	30.8403
2.85351	30.7762
2.85194	30.7348
2.85038	30.7896
2.84881	30.6547
2.84724	30.483
2.84568	30.5292
2.84412	30.6225
2.84256	30.4983
2.841	30.4427
2.83945	30.5528
2.83789	30.5893
2.83634	30.6588
2.83479	30.7768
2.83324	30.7124
2.83169	30.4965
2.83015	30.4984
2.82861	30.5714
2.82706	30.5391
2.82552	30.372
2.82398	30.1435
2.82245	30.1157
2.82091	30.242
2.81938	30.2489
2.81784	30.1096
2.81631	29.973
2.81479	29.8133
2.81326	29.6544
2.81173	29.6227
2.81021	29.6309
2.80869	29.5479
2.80716	29.4118
2.80565	29.4506
2.80413	29.678
2.80261	29.5685
2.8011	29.1128
2.79959	28.7903
2.79808	28.6669
2.79657	28.672
2.79506	28.686
2.79355	28.6661
2.79205	28.6768
2.79055	28.6307
2.78904	28.5246
2.78754	28.5831
2.78605	28.6665
2.78455	28.3987
2.78306	28.0944
2.78156	27.8383
2.78007	27.7737
2.77858	27.8605
2.77709	27.7275
2.77561	27.4857
2.77412	27.3828
2.77264	27.3965
2.77116	27.5512
2.76968	27.5735
2.7682	27.4807
2.76672	27.3527
2.76524	27.2932
2.76377	27.3678
2.7623	27.1739
2.76083	26.7542
2.75936	26.4886
2.75789	26.5578
2.75642	27.1371
2.75496	27.2112
2.7535	26.4624
2.75203	25.9272
2.75057	25.6363
2.74912	25.6532
2.74766	25.6749
2.7462	25.4669
2.74475	25.1786
2.7433	25.1133
2.74185	25.2921
2.7404	25.0326
2.73895	24.3641
2.7375	23.9325
2.73606	23.7039
2.73462	23.3377
2.73318	22.4476
2.73174	21.3878
2.7303	21.2146
2.72886	21.426
2.72742	21.4856
2.72599	21.4194
2.72456	21.2033
2.72313	20.5045
2.7217	19.8543
2.72027	19.2317
2.71884	20.0721
2.71742	22.4978
2.71599	23.9431
2.71457	24.4873
2.71315	24.9515
2.71173	25.7584
2.71032	26.345
2.7089	26.6612
2.70748	27.1258
2.70607	27.8572
2.70466	28.8588
2.70325	30.1561
2.70184	31.642
2.70043	32.9227
2.69903	34.0176
2.69762	35.4085
2.69622	36.9313
2.69482	38.335
2.69342	39.4589
2.69202	40.0105
2.69062	40.6251
2.68923	41.4995
2.68783	42.2951
2.68644	42.9414
2.68505	43.577
2.68366	44.1336
2.68227	44.3545
2.68089	44.724
2.6795	45.5085
2.67812	45.9651
2.67673	46.3648
2.67535	46.1845
2.67397	45.9074
2.6726	46.0442
2.67122	47.1419
2.66984	47.4147
2.66847	46.7339
2.6671	47.3746
2.66572	47.6496
2.66435	47.0919
2.66299	46.3093
2.66162	46.2373
2.66025	46.3305
2.65889	46.3812
2.65753	46.1045
2.65616	46.2007
2.65481	46.2425
2.65345	46.3884
2.65209	46.3466
2.65073	46.0244
2.64938	45.8824
2.64803	46.0931
2.64667	46.2923
2.64532	46.2331
2.64397	45.9492
2.64263	46.0526
2.64128	46.1434
2.63994	46.1035
2.63859	45.9809
2.63725	45.8884
2.63591	45.9138
2.63457	46.1096
2.63323	46.0989
2.6319	46.2421
2.63056	46.7848
2.62923	46.4775
2.62789	46.4257
2.62656	46.6986
2.62523	46.1335
2.6239	45.7964
2.62258	45.7893
2.62125	46.4343
2.61993	46.6291
2.6186	46.2021
2.61728	46.6351
2.61596	46.4637
2.61464	45.9927
2.61332	46.0179
2.61201	45.865
2.61069	45.9077
2.60938	46.1032
2.60807	46.1277
2.60675	46.3025
2.60544	46.6335
2.60414	46.298
2.60283	46.0173
2.60152	45.783
2.60022	45.4818
2.59891	45.3045
2.59761	45.5364
2.59631	46.4272
2.59501	47.4603
2.59371	46.663
2.59242	45.6489
2.59112	45.4086
2.58983	45.4643
2.58853	45.6721
2.58724	45.8556
2.58595	45.6098
2.58466	45.8035
2.58338	45.8744
2.58209	45.4772
2.5808	45.3323
2.57952	45.0759
2.57824	45.162
2.57695	45.3626
2.57567	45.1903
2.5744	45.3362
2.57312	45.5257
2.57184	45.0338
2.57057	45.0965
2.56929	45.1604
2.56802	44.9052
2.56675	44.8373
2.56548	45.0345
2.56421	45.2677
2.56294	45.3794
2.56168	45.3269
2.56041	44.9749
2.55915	44.6354
2.55789	44.5706
2.55662	44.5367
2.55536	44.5159
2.5541	44.6778
2.55285	44.8017
2.55159	44.6505
2.55034	44.5094
2.54908	44.4423
2.54783	44.5275
2.54658	44.4877
2.54533	44.3492
2.54408	44.3959
2.54283	44.3742
2.54159	44.192
2.54034	44.069
2.5391	44.1918
2.53785	44.2466
2.53661	44.2289
2.53537	44.076
2.53413	43.9197
2.53289	43.9766
2.53166	43.9771
2.53042	43.9456
2.52919	43.8753
2.52795	43.7465
2.52672	43.7329
2.52549	43.7804
2.52426	43.7021
2.52303	43.6811
2.52181	43.6306
2.52058	43.5571
2.51936	43.5528
2.51813	43.5546
2.51691	43.4995
2.51569	43.4903
2.51447	43.4387
2.51325	43.4404
2.51203	43.4547
2.51082	43.4332
2.5096	43.3744
2.50839	43.2235
2.50717	43.1246
2.50596	43.1426
2.50475	43.1743
2.50354	43.2085
2.50233	43.2266
2.50113	43.1677
2.49992	43.0357
2.49872	42.9849
2.49751	43.0476
2.49631	42.9095
2.49511	42.7572
2.49391	42.8434
2.49271	42.8265
2.49151	42.8419
2.49031	42.8397
2.48912	42.8201
2.48792	42.6971
2.48673	42.5841
2.48554	42.6464
2.48435	42.6889
2.48316	42.6521
2.48197	42.5453
2.48078	42.5884
2.4796	42.6794
2.47841	42.6373
2.47723	42.4303
2.47604	42.3829
2.47486	42.4423
2.47368	42.4154
2.4725	42.3289
2.47132	42.2456
2.47014	42.2137
2.46897	42.2075
2.46779	42.16
2.46662	42.1648
2.46545	42.1786
2.46427	42.2205
2.4631	42.1673
2.46193	42.0937
2.46077	42.063
2.4596	42.0108
2.45843	42.0193
2.45727	42.0576
2.4561	42.0438
2.45494	42.0364
2.45378	41.9446
2.45262	41.8898
2.45146	41.9137
2.4503	41.8552
2.44914	41.7467
2.44799	41.7922
2.44683	41.7766
2.44568	41.7976
2.44452	41.8174
2.44337	41.7253
2.44222	41.7226
2.44107	41.6331
2.43992	41.454
2.43877	41.4165
2.43763	41.4639
2.43648	41.5
2.43534	41.5469
2.43419	41.5494
2.43305	41.4278
2.43191	41.4172
2.43077	41.4119
2.42963	41.4094
2.42849	41.364
2.42736	41.4158
2.42622	41.4042
2.42509	41.3074
2.42395	41.353
2.42282	41.3895
2.42169	41.3048
2.42056	41.4071
2.41943	41.4713
2.4183	41.2947
2.41717	41.2856
2.41605	41.3896
2.41492	41.282
2.4138	41.2099
2.41267	41.2262
2.41155	40.9597
2.41043	40.8496
2.40931	40.9437
2.40819	40.9649
2.40707	40.9969
2.40595	40.9684
2.40484	40.9585
2.40372	40.9504
2.40261	40.8375
2.4015	40.6925
2.40039	40.5758
2.39928	40.4374
2.39817	40.46
2.39706	40.3964
2.39595	40.2544
2.39484	40.2268
2.39374	40.2557
2.39263	40.2
2.39153	40.0193
2.39043	40.0001
2.38932	40.0784
2.38822	40.0026
2.38712	39.8901
2.38603	39.8498
2.38493	39.8838
2.38383	39.8624
2.38274	40.0097
2.38164	40.1706
2.38055	39.9719
2.37946	39.9053
2.37836	40.0294
2.37727	40.0923
2.37618	40.1314
2.3751	40.1366
2.37401	40.0755
2.37292	40.234
2.37184	40.3569
2.37075	40.229
2.36967	40.0931
2.36859	40.1602
2.3675	40.2265
2.36642	40.3106
2.36534	40.2638
2.36427	40.2557
2.36319	40.2793
2.36211	40.1999
2.36104	40.1502
2.35996	40.1167
2.35889	40.1999
2.35781	40.2174
2.35674	40.1502
2.35567	40.1475
2.3546	40.2116
2.35353	40.0652
2.35247	39.9848
2.3514	40.0966
2.35033	40.1222
2.34927	40.0831
2.3482	39.9565
2.34714	39.7956
2.34608	39.7628
2.34502	39.9128
2.34396	39.9705
2.3429	39.8335
2.34184	39.815
2.34078	39.7773
2.33973	39.6554
2.33867	39.662
2.33762	39.7043
2.33656	39.5796
2.33551	39.5334
2.33446	39.6147
2.33341	39.4768
2.33236	39.2889
2.33131	39.1681
2.33026	39.2263
2.32922	39.2214
2.32817	39.0962
2.32712	39.0205
2.32608	38.9433
2.32504	38.7706
2.324	38.6142
2.32295	38.4683
2.32191	38.3898
2.32087	38.4538
2.31984	38.355
2.3188	38.1692
2.31776	38.0089
2.31673	37.8074
2.31569	37.6699
2.31466	37.4716
2.31362	37.369
2.31259	37.2735
2.31156	37.1812
2.31053	37.0588
2.3095	37.1016
2.30847	37.1035
2.30745	37.1698
2.30642	37.2672
2.3054	37.3696
2.30437	37.472
2.30335	37.4213
2.30232	37.3094
2.3013	37.3518
2.30028	37.5197
2.29926	37.6995
2.29824	37.8156
2.29722	37.7565
2.29621	37.6975
2.29519	37.5902
2.29417	37.4202
2.29316	37.3741
2.29215	37.4265
2.29113	37.4158
2.29012	37.4956
2.28911	37.633
2.2881	37.7771
2.28709	37.853
2.28608	37.7456
2.28507	37.8352
2.28407	38.0197
2.28306	37.9749
2.28206	38.0687
2.28105	38.0978
2.28005	37.982
2.27905	37.954
2.27805	37.906
2.27705	37.8866
2.27605	37.9591
2.27505	38.0631
2.27405	38.0176
2.27305	37.8254
2.27206	37.8458
2.27106	37.9
2.27007	37.946
2.26907	37.91
2.26808	37.7803
2.26709	37.6405
2.2661	37.7351
2.26511	37.8043
2.26412	37.7107
2.26313	37.7546
2.26214	37.7803
2.26116	37.9215
2.26017	37.9973
2.25919	37.7808
2.2582	37.7952
2.25722	37.8126
2.25624	37.876
2.25526	37.8388
2.25428	37.7651
2.2533	37.8052
2.25232	37.8522
2.25134	37.631
2.25036	37.423
2.24939	37.3429
2.24841	37.2373
2.24744	37.2892
2.24646	37.3752
2.24549	37.3861
2.24452	37.4288
2.24355	37.2275
2.24257	37.1685
2.24161	37.3103
2.24064	37.2492
2.23967	37.1018
2.2387	37.1073
2.23774	37.1396
2.23677	37.0158
2.23581	36.8696
2.23484	36.9496
2.23388	37.0386
2.23292	36.9722
2.23196	36.9089
2.231	36.8041
2.23004	36.8798
2.22908	36.9255
2.22812	36.7514
2.22716	36.5175
2.22621	36.4373
2.22525	36.5291
2.2243	36.6462
2.22334	36.6245
2.22239	36.5213
2.22144	36.4476
2.22049	36.3273
2.21953	36.3518
2.21859	36.3122
2.21764	36.2332
2.21669	36.0933
2.21574	36.0651
2.21479	36.2325
2.21385	36.2015
2.2129	36.0138
2.21196	35.9859
2.21102	36.0677
2.21007	36.0307
2.20913	35.8517
2.20819	35.7514
2.20725	35.7245
2.20631	35.5836
2.20537	35.4924
2.20444	35.6222
2.2035	35.6293
2.20256	35.5088
2.20163	35.3546
2.20069	35.4031
2.19976	35.3567
2.19883	35.3027
2.19789	35.3743
2.19696	35.3523
2.19603	35.2849
2.1951	35.0324
2.19417	35.0422
2.19325	35.2936
2.19232	35.1329
2.19139	34.9628
2.19047	34.9436
2.18954	34.843
2.18862	34.711
2.18769	34.6537
2.18677	34.5424
2.18585	34.4321
2.18493	34.4294
2.18401	34.516
2.18309	34.5203
2.18217	34.3906
2.18125	34.3401
2.18033	34.2725
2.17942	34.212
2.1785	34.2084
2.17759	34.1452
2.17667	34.0292
2.17576	34.1054
2.17485	34.0494
2.17393	34.0937
2.17302	34.018
2.17211	33.7864
2.1712	33.7986
2.17029	33.8444
2.16939	33.8463
2.16848	33.7706
2.16757	33.6974
2.16667	33.4505
2.16576	33.3191
2.16486	33.3176
2.16395	33.3083
2.16305	33.3406
2.16215	33.2485
2.16125	33.1192
2.16035	33.0514
2.15945	32.9851
2.15855	33.0424
2.15765	33.0128
2.15675	32.9423
2.15586	32.9245
2.15496	32.8603
2.15406	32.8574
2.15317	32.7597
2.15228	32.6431
2.15138	32.6616
2.15049	32.5385
2.1496	32.3227
2.14871	32.2947
2.14782	32.1735
2.14693	32.1145
2.14604	32.2094
2.14515	32.1583
2.14427	31.7558
2.14338	31.7536
2.14249	31.8934
2.14161	31.847
2.14072	31.7489
2.13984	31.7375
2.13896	31.6765
2.13808	31.4599
2.13719	31.3924
2.13631	31.4615
2.13543	31.3765
2.13455	31.4396
2.13368	31.3778
2.1328	31.184
2.13192	31.3314
2.13105	31.2918
2.13017	31.1189
2.1293	31.1097
2.12842	31.0369
2.12755	30.9018
2.12668	30.9397
2.1258	30.898
2.12493	30.7521
2.12406	30.7351
2.12319	30.6987
2.12232	30.6282
2.12145	30.499
2.12059	30.3669
2.11972	30.2861
2.11885	30.2556
2.11799	30.2478
2.11712	30.3471
2.11626	30.5072
2.1154	30.4344
2.11453	30.2862
2.11367	30.1617
2.11281	29.9875
2.11195	29.7015
2.11109	29.6989
2.11023	29.8402
2.10937	29.8519
2.10851	29.7615
2.10766	29.6323
2.1068	29.7245
2.10594	29.6436
2.10509	29.4665
2.10423	29.4516
2.10338	29.2133
2.10253	29.0215
2.10168	29.2078
2.10082	29.405
2.09997	29.4026
2.09912	29.2602
2.09827	29.0472
2.09742	28.9352
2.09658	28.9014
2.09573	28.8386
2.09488	28.4995
2.09404	28.3588
2.09319	28.3707
2.09235	28.4078
2.0915	28.3256
2.09066	28.5432
2.08982	28.6564
2.08897	28.4175
2.08813	28.3083
2.08729	28.1515
2.08645	28.1079
2.08561	28.0881
2.08477	28.1109
2.08394	28.0675
2.0831	28.0124
2.08226	27.9383
2.08143	28.0908
2.08059	28.0736
2.07976	27.8707
2.07892	27.4211
2.07809	27.2982
2.07726	27.3654
2.07643	27.4372
2.07559	27.6393
2.07476	27.8386
2.07393	27.6922
2.0731	27.5354
2.07228	27.0658
2.07145	26.7149
2.07062	26.7114
2.06979	26.9372
2.06897	27.0702
2.06814	27.1882
2.06732	27.0386
2.06649	26.8955
2.06567	26.996
2.06485	27.0152
2.06403	26.8755
2.0632	26.7782
2.06238	26.6403
2.06156	26.6295
2.06074	26.6174
2.05993	26.6166
2.05911	26.564
2.05829	26.4123
2.05747	26.1606
2.05666	26.1271
2.05584	26.2364
2.05503	26.2535
2.05421	26.1146
2.0534	26.0469
2.05259	26.1778
2.05177	26.1591
2.05096	26.1449
2.05015	26.2482
2.04934	26.1844
2.04853	25.8726
2.04772	25.6982
2.04691	25.6821
2.04611	25.6512
2.0453	25.6678
2.04449	25.6476
2.04369	25.5747
2.04288	25.5058
2.04208	25.5407
2.04127	25.4623
2.04047	25.3237
2.03967	25.1893
2.03886	25.1864
2.03806	25.2962
2.03726	25.251
2.03646	25.1662
2.03566	25.2501
2.03486	25.3467
2.03407	25.1424
2.03327	25.0477
2.03247	25.0869
2.03167	24.95
2.03088	24.7474
2.03008	24.8528
2.02929	24.9234
2.0285	24.6584
2.0277	24.6316
2.02691	24.6607
2.02612	24.497
2.02533	24.3743
2.02453	24.2682
2.02374	24.206
2.02295	24.1738
2.02217	24.1633
2.02138	24.3445
2.02059	24.4338
2.0198	24.1998
2.01902	24.2569
2.01823	24.2016
2.01744	24.0034
2.01666	24.1191
2.01588	24.3504
2.01509	24.2306
2.01431	24.0848
2.01353	24.0219
2.01275	24.1164
2.01196	23.9046
2.01118	23.6756
2.0104	23.5336
2.00963	23.555
2.00885	23.6168
2.00807	23.6103
2.00729	23.7062
2.00651	23.6338
2.00574	23.4409
2.00496	23.2607
2.00419	23.3065
2.00341	23.5767
2.00264	23.4252
2.00187	23.3914
2.00109	23.4678
2.00032	23.2906
