Name: Tincalconite Na_2B_4O_5(OH)_4.3H_2O
Type: Mineral
Class: Borates
Subclass: 
Particle Size: 45-125um
Sample No.: B-4A
Owner: JPL
Wavelength range: IR
Origin: USA, California, Kern County, Boron
Collected by Burminco
Description: 





Measurement: Hemispherical reflectance
First Column: X
Second Column: Y
X Units:  Wavelength (micrometers)
Y Units:  Reflectance (percent)
First X Value: 15.3853
Last X Value: 2.00032
Number of X Values: 2256
Additional information: b04aa.txt
 
15.3853	2.7871
15.3397	2.7413
15.2945	2.5458
15.2495	2.57112
15.2048	2.75903
15.1603	2.74961
15.1161	2.63692
15.0722	2.59073
15.0285	2.63213
14.9851	2.73088
14.9419	2.84563
14.8989	2.69305
14.8563	2.62347
14.8138	2.77373
14.7716	2.75001
14.7296	2.4735
14.6879	2.3642
14.6464	2.31159
14.6052	2.33474
14.5641	2.56497
14.5233	2.86009
14.4828	2.88166
14.4424	2.65257
14.4023	2.50156
14.3624	2.6781
14.3227	2.7867
14.2833	2.49565
14.244	2.31996
14.205	2.41159
14.1662	2.5108
14.1276	2.44061
14.0892	2.27449
14.051	2.30499
14.0131	2.26913
13.9753	2.1343
13.9377	2.07593
13.9004	2.06951
13.8632	1.93639
13.8262	1.89304
13.7895	1.8931
13.7529	1.83798
13.7165	1.9281
13.6803	2.00823
13.6443	2.05423
13.6085	2.13716
13.5729	2.11731
13.5374	2.19455
13.5022	2.27088
13.4671	2.06492
13.4322	2.09623
13.3975	2.23876
13.363	2.34114
13.3286	2.42782
13.2944	2.41837
13.2604	2.60665
13.2266	2.65144
13.193	2.46371
13.1595	2.37156
13.1262	2.33513
13.093	2.37344
13.06	2.41925
13.0272	2.45779
12.9946	2.57611
12.9621	2.55764
12.9298	2.45791
12.8976	2.41495
12.8656	2.31352
12.8337	2.29674
12.8021	2.37601
12.7705	2.37639
12.7391	2.41063
12.7079	2.49315
12.6769	2.58505
12.6459	2.65728
12.6152	2.69153
12.5845	2.72797
12.5541	2.77638
12.5238	2.9083
12.4936	2.85507
12.4635	2.79302
12.4337	2.81983
12.4039	2.95691
12.3743	3.03024
12.3448	3.11924
12.3155	3.32953
12.2863	3.57554
12.2573	3.88416
12.2284	4.24039
12.1996	4.54893
12.171	4.86985
12.1425	4.89508
12.1141	4.81507
12.0859	4.78457
12.0578	4.75561
12.0298	4.34283
12.0019	3.73163
11.9742	3.23414
11.9466	2.66
11.9192	2.09158
11.8918	1.58556
11.8646	1.33074
11.8375	1.3199
11.8106	1.09019
11.7837	0.921613
11.757	1.07522
11.7304	1.13402
11.7039	1.08682
11.6776	1.00917
11.6513	1.00686
11.6252	1.21827
11.5992	1.40315
11.5733	1.30226
11.5475	1.38332
11.5219	1.55911
11.4963	1.5621
11.4709	1.56361
11.4455	1.61002
11.4203	1.65092
11.3952	1.78881
11.3702	1.84273
11.3454	1.92562
11.3206	1.87869
11.2959	1.67554
11.2714	1.5502
11.2469	1.59484
11.2226	1.73445
11.1983	1.7848
11.1742	1.79303
11.1502	1.81937
11.1263	1.82602
11.1024	1.97855
11.0787	2.05421
11.0551	2.03658
11.0316	2.05657
11.0081	2.20491
10.9848	2.20306
10.9616	2.20003
10.9385	2.34185
10.9154	2.45334
10.8925	2.52986
10.8697	2.63535
10.8469	2.67159
10.8243	2.63069
10.8017	2.71534
10.7793	2.82582
10.7569	2.89298
10.7346	3.10237
10.7125	3.31667
10.6904	3.49601
10.6684	3.66133
10.6465	3.77129
10.6247	3.9235
10.6029	4.26914
10.5813	4.58149
10.5597	4.48383
10.5383	4.16126
10.5169	3.55096
10.4956	2.84193
10.4744	2.18078
10.4533	1.81336
10.4323	1.6499
10.4113	1.53658
10.3904	1.73263
10.3697	1.88124
10.349	1.99312
10.3284	2.25834
10.3078	2.51053
10.2874	2.59095
10.267	2.6506
10.2467	2.86714
10.2265	3.09586
10.2064	3.27876
10.1863	3.49435
10.1663	3.67973
10.1464	3.77611
10.1266	4.23613
10.1069	4.63611
10.0872	4.89361
10.0676	5.40206
10.0481	5.78643
10.0287	6.05753
10.0093	6.36761
9.99005	6.64353
9.97084	6.88294
9.95169	7.08172
9.93263	6.97348
9.91364	6.57147
9.89472	6.24459
9.87587	5.88368
9.8571	5.41394
9.83839	5.034
9.81976	4.65719
9.80119	4.1927
9.78271	3.91393
9.76428	3.90676
9.74592	4.05453
9.72764	4.20138
9.70943	4.3439
9.69128	4.45966
9.6732	4.5963
9.65518	4.56075
9.63724	4.48416
9.61935	4.52615
9.60155	4.41884
9.5838	4.09338
9.56611	3.6747
9.5485	3.25949
9.53094	2.92423
9.51345	2.55975
9.49604	2.33042
9.47867	1.93887
9.46137	1.49874
9.44414	1.42319
9.42697	1.38121
9.40986	1.26274
9.39281	1.13988
9.37583	1.10616
9.35891	1.13749
9.34204	1.17761
9.32524	1.2626
9.3085	1.29185
9.29182	1.21317
9.27519	1.26761
9.25863	1.25514
9.24213	1.10575
9.22568	1.08728
9.2093	1.06989
9.19297	0.993453
9.17669	1.03071
9.16048	1.01187
9.14433	1.05098
9.12823	1.15495
9.11218	1.03853
9.0962	0.925029
9.08027	1.02572
9.06439	1.04172
9.04858	1.09431
9.03281	1.11168
9.0171	1.0667
9.00145	1.0868
8.98585	1.1582
8.9703	1.26907
8.9548	1.41232
8.93937	1.59076
8.92398	1.76274
8.90865	1.97721
8.89337	2.3689
8.87814	2.68805
8.86296	3.00802
8.84784	3.27708
8.83277	3.28019
8.81774	3.27861
8.80277	3.16684
8.78786	2.87555
8.77298	2.52029
8.75816	2.29404
8.7434	2.04842
8.72868	1.89459
8.714	1.69062
8.69938	1.47914
8.68481	1.26461
8.67029	1.14305
8.65581	1.13096
8.64139	1.15942
8.62701	1.1684
8.61268	1.12949
8.5984	1.22781
8.58416	1.16428
8.56997	0.954929
8.55583	0.81734
8.54174	0.764567
8.52769	0.796243
8.51368	0.826639
8.49973	0.85394
8.48582	0.946101
8.47195	0.857591
8.45813	0.872134
8.44436	0.931918
8.43062	0.930334
8.41693	0.995612
8.4033	1.07702
8.3897	1.06959
8.37614	1.09948
8.36264	1.25117
8.34917	1.27639
8.33574	1.21748
8.32236	1.28174
8.30903	1.40234
8.29573	1.38303
8.28248	1.2743
8.26927	1.21205
8.2561	1.23884
8.24298	1.13594
8.2299	1.1451
8.21685	1.29773
8.20385	1.3541
8.19089	1.39458
8.17797	1.33016
8.16509	1.35966
8.15225	1.50529
8.13946	1.42104
8.1267	1.35502
8.11398	1.387
8.10131	1.4188
8.08867	1.37523
8.07606	1.52493
8.0635	1.63045
8.05099	1.66417
8.0385	1.72743
8.02606	1.81111
8.01366	1.83856
8.00129	1.77962
7.98896	1.77441
7.97667	1.82988
7.96442	1.89495
7.9522	1.86933
7.94002	1.6641
7.92788	1.62053
7.91578	1.6991
7.90371	1.71033
7.89168	1.73601
7.87969	1.64671
7.86773	1.48273
7.85581	1.47335
7.84392	1.53899
7.83207	1.6009
7.82026	1.61005
7.80849	1.61111
7.79674	1.65422
7.78503	1.69858
7.77337	1.69542
7.76173	1.54867
7.75012	1.44848
7.73856	1.43664
7.72703	1.34569
7.71553	1.20761
7.70406	1.15724
7.69263	1.10319
7.68123	1.02896
7.66987	1.00089
7.65855	1.05686
7.64725	1.17244
7.63598	1.26925
7.62475	1.3223
7.61356	1.43862
7.60239	1.53455
7.59126	1.5443
7.58017	1.59079
7.5691	1.65898
7.55806	1.82665
7.54707	2.00152
7.5361	2.14153
7.52516	2.26131
7.51425	2.35355
7.50338	2.47782
7.49253	2.54961
7.48172	2.56745
7.47094	2.62838
7.46019	2.67645
7.44947	2.72295
7.43879	2.79781
7.42813	2.75084
7.4175	2.64015
7.4069	2.53529
7.39634	2.40976
7.3858	2.30147
7.37529	2.16229
7.36482	2.04284
7.35437	2.01582
7.34396	1.98716
7.33357	1.93041
7.32321	1.87466
7.31288	1.7951
7.30258	1.75391
7.29231	1.75552
7.28207	1.82808
7.27185	1.88268
7.26167	1.89664
7.25152	2.0194
7.24139	1.94604
7.23129	1.83754
7.22122	1.84764
7.21117	1.84728
7.20116	1.77225
7.19117	1.7518
7.18121	1.84352
7.17128	1.87117
7.16137	1.89176
7.1515	1.82179
7.14164	1.77415
7.13182	1.79403
7.12203	1.80379
7.11225	1.75551
7.10251	1.7959
7.0928	1.78236
7.08311	1.74152
7.07344	1.81489
7.06381	1.86202
7.0542	1.8989
7.04461	1.93992
7.03506	2.05037
7.02552	2.18748
7.01601	2.26167
7.00653	2.43032
6.99708	2.4951
6.98765	2.4163
6.97824	2.35566
6.96886	2.28085
6.95951	2.27502
6.95018	2.26372
6.94087	2.07805
6.9316	1.89647
6.92234	1.78485
6.91311	1.721
6.90391	1.73386
6.89473	1.78138
6.88557	1.83418
6.87644	1.83163
6.86733	1.76555
6.85824	1.72398
6.84918	1.66576
6.84015	1.71791
6.83114	1.93674
6.82215	2.06407
6.81319	2.19405
6.80424	2.294
6.79532	2.31685
6.78643	2.40991
6.77756	2.63399
6.76871	2.74964
6.75989	2.80461
6.75109	2.92984
6.74231	3.10198
6.73355	3.20411
6.72482	3.26889
6.71611	3.35984
6.70742	3.41626
6.69875	3.48364
6.69011	3.50995
6.68149	3.47636
6.67289	3.39327
6.66431	3.27633
6.65576	3.17751
6.64722	3.09626
6.63871	2.8723
6.63022	2.53013
6.62175	2.25651
6.61331	1.89914
6.60488	1.6858
6.59648	1.4418
6.5881	1.27929
6.57974	1.26907
6.5714	1.12096
6.56308	0.97886
6.55478	0.910329
6.54651	0.809858
6.53825	0.73694
6.53001	0.695656
6.5218	0.711223
6.51361	0.654234
6.50544	0.603667
6.49729	0.667113
6.48915	0.719712
6.48104	0.716279
6.47295	0.64021
6.46488	0.630201
6.45683	0.612281
6.4488	0.627328
6.44079	0.644324
6.4328	0.687328
6.42482	0.65318
6.41687	0.632836
6.40894	0.781495
6.40103	0.798268
6.39314	0.734779
6.38526	0.743153
6.37741	0.692045
6.36957	0.689012
6.36176	0.754568
6.35396	0.80667
6.34618	0.876191
6.33843	0.878091
6.33069	0.821791
6.32297	0.874741
6.31527	0.960669
6.30758	0.944202
6.29992	0.866036
6.29227	0.837092
6.28465	0.885412
6.27704	0.890649
6.26945	0.889573
6.26188	0.832446
6.25432	0.916616
6.24679	0.944483
6.23927	0.940503
6.23177	0.986606
6.22429	0.969616
6.21683	0.993673
6.20938	1.05285
6.20195	1.02812
6.19454	0.942752
6.18715	0.971561
6.17978	0.943799
6.17242	0.887854
6.16508	0.887383
6.15776	0.941464
6.15045	0.943564
6.14317	0.901851
6.1359	0.903694
6.12864	0.930442
6.12141	0.833741
6.11419	0.844296
6.10699	0.967169
6.0998	0.929113
6.09263	0.847827
6.08549	0.887326
6.07835	0.841436
6.07123	0.786848
6.06413	0.742134
6.05705	0.78301
6.04998	0.84415
6.04293	0.856019
6.0359	0.762061
6.02888	0.657405
6.02187	0.694188
6.01489	0.696643
6.00792	0.672249
6.00096	0.691183
5.99403	0.66051
5.98711	0.73673
5.9802	0.805374
5.97331	0.821229
5.96644	0.736957
5.95958	0.699839
5.95274	0.772485
5.94591	0.804136
5.9391	0.814043
5.9323	0.782651
5.92552	0.753512
5.91876	0.822019
5.91201	0.781693
5.90528	0.776312
5.89856	0.757895
5.89186	0.707026
5.88517	0.820411
5.8785	0.96708
5.87184	0.948881
5.8652	0.870417
5.85857	0.808698
5.85196	0.90427
5.84536	0.953545
5.83878	0.963032
5.83221	1.02204
5.82566	1.08673
5.81912	1.15849
5.81259	1.16121
5.80608	1.16687
5.79959	1.20575
5.79311	1.26948
5.78665	1.30719
5.78019	1.34469
5.77376	1.36581
5.76734	1.26463
5.76093	1.3024
5.75453	1.46261
5.74815	1.52392
5.74179	1.51211
5.73543	1.51914
5.7291	1.60256
5.72277	1.6523
5.71646	1.61783
5.71017	1.63172
5.70389	1.68986
5.69762	1.72833
5.69136	1.71371
5.68513	1.68757
5.6789	1.75604
5.67268	1.81382
5.66648	1.82977
5.6603	1.86821
5.65413	1.84948
5.64797	1.89347
5.64182	1.94103
5.63569	1.90179
5.62957	1.91295
5.62347	1.87175
5.61737	1.88757
5.61129	1.90303
5.60522	1.87786
5.59917	1.93838
5.59313	1.94276
5.5871	1.89617
5.58109	1.92028
5.57509	1.98194
5.5691	2.03597
5.56312	2.02738
5.55716	2.02513
5.55121	2.09897
5.54528	2.13305
5.53935	2.12393
5.53344	2.11279
5.52754	2.13236
5.52166	2.18262
5.51578	2.23676
5.50992	2.25405
5.50407	2.27601
5.49823	2.28625
5.49241	2.32125
5.4866	2.38975
5.4808	2.41409
5.47501	2.40618
5.46923	2.43532
5.46347	2.45371
5.45772	2.45395
5.45198	2.49696
5.44625	2.55526
5.44054	2.52065
5.43484	2.44558
5.42914	2.47504
5.42347	2.59053
5.4178	2.64008
5.41214	2.71586
5.4065	2.91221
5.40087	2.91891
5.39525	2.87769
5.38964	2.80835
5.38404	2.78541
5.37846	2.96872
5.37288	3.07074
5.36732	3.05268
5.36177	3.07871
5.35623	3.14908
5.35071	3.24388
5.34519	3.19969
5.33968	3.10951
5.33419	3.19866
5.32871	3.30193
5.32324	3.34487
5.31778	3.42007
5.31233	3.40602
5.30689	3.42813
5.30147	3.40449
5.29605	3.35154
5.29065	3.37413
5.28525	3.41705
5.27987	3.50988
5.2745	3.50035
5.26914	3.42228
5.26379	3.4522
5.25845	3.47832
5.25312	3.52768
5.24781	3.51809
5.2425	3.40703
5.23721	3.42084
5.23192	3.40816
5.22665	3.40818
5.22138	3.47276
5.21613	3.49891
5.21089	3.40769
5.20566	3.40404
5.20044	3.43133
5.19522	3.37857
5.19002	3.41023
5.18483	3.41599
5.17965	3.36111
5.17448	3.34388
5.16933	3.3858
5.16418	3.44616
5.15904	3.48718
5.15391	3.52731
5.14879	3.50053
5.14368	3.47355
5.13859	3.55775
5.1335	3.55948
5.12842	3.59111
5.12335	3.6466
5.1183	3.65588
5.11325	3.72318
5.10821	3.81338
5.10318	3.76423
5.09817	3.6805
5.09316	3.70031
5.08816	3.79382
5.08317	3.80472
5.07819	3.78526
5.07322	3.79379
5.06826	3.82967
5.06331	3.87865
5.05837	3.90683
5.05344	3.89794
5.04852	3.8803
5.04361	3.9018
5.03871	3.95454
5.03382	4.02978
5.02894	4.03542
5.02406	4.04901
5.0192	4.05487
5.01435	4.01203
5.0095	3.96331
5.00467	4.04029
4.99984	4.05489
4.99502	4.01163
4.99021	4.03803
4.98542	4.03255
4.98063	4.02397
4.97585	3.99246
4.97108	3.97577
4.96632	4.04399
4.96156	4.04668
4.95682	4.04998
4.95209	4.07343
4.94736	4.04571
4.94264	4.02123
4.93794	4.03227
4.93324	4.06267
4.92855	4.02569
4.92387	4.01083
4.9192	4.03777
4.91453	4.08078
4.90988	4.11726
4.90524	4.08942
4.9006	4.13443
4.89597	4.17638
4.89135	4.18934
4.88674	4.16262
4.88214	4.16677
4.87755	4.19929
4.87296	4.22493
4.86839	4.24843
4.86382	4.23123
4.85926	4.2608
4.85471	4.374
4.85017	4.42164
4.84564	4.40645
4.84111	4.4096
4.8366	4.47379
4.83209	4.42582
4.82759	4.41931
4.8231	4.47345
4.81862	4.46955
4.81415	4.44061
4.80968	4.49037
4.80522	4.53533
4.80077	4.49601
4.79633	4.57101
4.7919	4.5975
4.78747	4.52407
4.78306	4.52728
4.77865	4.60135
4.77425	4.62538
4.76986	4.59478
4.76547	4.54218
4.7611	4.47249
4.75673	4.51354
4.75237	4.50755
4.74802	4.41456
4.74367	4.4248
4.73934	4.42281
4.73501	4.43734
4.73069	4.50356
4.72638	4.47423
4.72207	4.411
4.71777	4.44734
4.71348	4.50567
4.7092	4.49961
4.70493	4.46814
4.70066	4.42369
4.69641	4.35838
4.69216	4.35846
4.68791	4.33336
4.68368	4.31044
4.67945	4.29844
4.67523	4.29579
4.67102	4.33543
4.66682	4.37483
4.66262	4.40067
4.65843	4.39661
4.65425	4.35633
4.65007	4.22215
4.64591	4.20631
4.64175	4.26627
4.6376	4.24541
4.63345	4.26594
4.62932	4.33075
4.62519	4.22827
4.62106	4.11213
4.61695	4.04499
4.61284	4.05347
4.60874	4.11276
4.60465	4.08082
4.60056	4.11503
4.59648	4.11054
4.59241	4.04897
4.58835	4.03366
4.58429	3.9692
4.58024	3.9751
4.5762	4.01494
4.57216	3.95923
4.56814	3.9297
4.56411	3.95518
4.5601	3.94177
4.55609	3.93342
4.55209	3.92591
4.5481	3.87955
4.54411	3.84167
4.54013	3.85454
4.53616	3.87635
4.5322	3.84131
4.52824	3.8099
4.52429	3.76969
4.52034	3.79244
4.51641	3.77917
4.51247	3.79229
4.50855	3.85012
4.50463	3.78569
4.50072	3.82205
4.49682	3.8484
4.49292	3.88579
4.48903	3.90919
4.48515	3.96369
4.48127	4.04304
4.4774	4.05013
4.47354	4.07422
4.46968	4.16721
4.46584	4.23066
4.46199	4.12926
4.45815	4.04751
4.45432	4.15445
4.4505	4.22169
4.44668	4.18323
4.44287	4.20775
4.43907	4.23883
4.43527	4.202
4.43148	4.22993
4.4277	4.30251
4.42392	4.28328
4.42015	4.22099
4.41638	4.17703
4.41262	4.16243
4.40887	4.09887
4.40513	4.08641
4.40139	4.1424
4.39765	4.10806
4.39393	4.06558
4.39021	4.1266
4.38649	4.10692
4.38278	4.12106
4.37908	4.07884
4.37539	3.99769
4.3717	4.01073
4.36801	4.05264
4.36434	3.95347
4.36067	3.9341
4.357	4.10086
4.35335	4.17848
4.34969	4.10212
4.34605	4.11175
4.34241	4.0924
4.33877	4.00643
4.33514	4.03333
4.33152	4.08358
4.32791	4.05539
4.3243	4.04758
4.32069	3.98435
4.3171	3.97152
4.31351	4.04478
4.30992	4.0886
4.30634	4.041
4.30277	4.03101
4.2992	4.05586
4.29564	4.04281
4.29208	3.99064
4.28853	4.00923
4.28499	4.09283
4.28145	4.1255
4.27792	4.02539
4.27439	3.8957
4.27087	3.90757
4.26735	3.9649
4.26384	3.91788
4.26034	3.82455
4.25684	3.83466
4.25335	3.92053
4.24986	3.87412
4.24638	3.70832
4.24291	3.63625
4.23944	3.66572
4.23598	3.60374
4.23252	3.47926
4.22906	3.47327
4.22562	3.50656
4.22218	3.42095
4.21874	3.29816
4.21531	3.30987
4.21189	3.29561
4.20847	3.28402
4.20506	3.24264
4.20165	3.16622
4.19825	3.05007
4.19485	2.90697
4.19146	2.83341
4.18807	2.82464
4.18469	2.75123
4.18132	2.64781
4.17795	2.57842
4.17458	2.46822
4.17123	2.37516
4.16787	2.36465
4.16453	2.26158
4.16118	2.15152
4.15785	2.09326
4.15451	2.08749
4.15119	2.003
4.14787	1.89867
4.14455	1.90761
4.14124	1.86626
4.13794	1.86267
4.13464	1.86271
4.13134	1.82748
4.12805	1.71163
4.12477	1.65613
4.12149	1.61901
4.11822	1.65045
4.11495	1.72227
4.11168	1.68826
4.10843	1.63253
4.10517	1.64198
4.10192	1.62573
4.09868	1.57797
4.09545	1.57892
4.09221	1.58761
4.08899	1.56675
4.08576	1.57442
4.08255	1.57693
4.07933	1.63755
4.07613	1.6683
4.07292	1.69725
4.06973	1.65644
4.06654	1.72254
4.06335	1.75285
4.06017	1.63002
4.05699	1.59673
4.05382	1.66942
4.05065	1.69657
4.04749	1.65582
4.04433	1.61131
4.04118	1.71469
4.03803	1.81825
4.03489	1.73988
4.03175	1.60002
4.02862	1.61563
4.02549	1.7323
4.02237	1.70029
4.01925	1.68117
4.01614	1.7258
4.01303	1.69508
4.00993	1.68619
4.00683	1.75868
4.00373	1.90502
4.00064	1.85126
3.99756	1.70171
3.99448	1.67563
3.9914	1.73841
3.98833	1.8269
3.98527	1.80042
3.98221	1.84812
3.97915	1.91507
3.9761	1.87252
3.97305	1.84625
3.97001	1.88245
3.96697	1.92126
3.96394	1.97572
3.96091	1.99645
3.95789	1.95911
3.95487	1.83507
3.95186	1.77625
3.94885	1.9203
3.94584	1.99015
3.94284	1.95412
3.93984	1.91612
3.93685	1.9146
3.93386	1.91783
3.93088	1.90956
3.9279	1.93148
3.92493	2.00733
3.92196	1.93301
3.919	1.86841
3.91604	1.79868
3.91308	1.74023
3.91013	1.70322
3.90718	1.72565
3.90424	1.74997
3.9013	1.74141
3.89837	1.71405
3.89544	1.74417
3.89252	1.82792
3.8896	1.7673
3.88668	1.75283
3.88377	1.69331
3.88086	1.63102
3.87796	1.68864
3.87506	1.73612
3.87217	1.62568
3.86928	1.5225
3.86639	1.52206
3.86351	1.59004
3.86064	1.63167
3.85776	1.54145
3.8549	1.5352
3.85203	1.59601
3.84917	1.49485
3.84631	1.43501
3.84346	1.46171
3.84062	1.47427
3.83777	1.43373
3.83494	1.36418
3.8321	1.38979
3.82927	1.42002
3.82644	1.48001
3.82362	1.57213
3.82081	1.60112
3.81799	1.52489
3.81518	1.51079
3.81238	1.59545
3.80958	1.65621
3.80678	1.57549
3.80399	1.5055
3.8012	1.48814
3.79841	1.52574
3.79563	1.53184
3.79286	1.50883
3.79008	1.56635
3.78731	1.63944
3.78455	1.6652
3.78179	1.62319
3.77903	1.6166
3.77628	1.67851
3.77353	1.71947
3.77079	1.53203
3.76805	1.43185
3.76531	1.609
3.76258	1.66677
3.75985	1.57126
3.75713	1.63759
3.7544	1.70779
3.75169	1.70388
3.74898	1.65728
3.74627	1.61401
3.74356	1.64494
3.74086	1.64421
3.73816	1.61744
3.73547	1.66715
3.73278	1.68088
3.7301	1.70613
3.72741	1.7097
3.72474	1.64303
3.72206	1.56567
3.71939	1.60579
3.71673	1.71489
3.71406	1.72473
3.71141	1.78276
3.70875	1.84786
3.7061	1.79514
3.70345	1.7129
3.70081	1.66369
3.69817	1.63376
3.69553	1.59033
3.6929	1.60665
3.69027	1.68542
3.68765	1.7013
3.68503	1.67427
3.68241	1.61748
3.6798	1.60665
3.67719	1.63316
3.67458	1.66796
3.67198	1.70237
3.66938	1.68637
3.66678	1.65195
3.66419	1.67047
3.66161	1.63258
3.65902	1.57077
3.65644	1.60694
3.65387	1.59014
3.65129	1.5224
3.64872	1.6074
3.64616	1.66424
3.64359	1.61982
3.64103	1.59666
3.63848	1.50793
3.63593	1.49394
3.63338	1.50326
3.63084	1.44271
3.6283	1.48465
3.62576	1.5169
3.62322	1.44299
3.62069	1.43676
3.61817	1.49092
3.61564	1.56319
3.61312	1.49023
3.61061	1.35
3.6081	1.3421
3.60559	1.40646
3.60308	1.36708
3.60058	1.40915
3.59808	1.53326
3.59558	1.52555
3.59309	1.46473
3.59061	1.46508
3.58812	1.52175
3.58564	1.53367
3.58316	1.43328
3.58069	1.38091
3.57822	1.38242
3.57575	1.31242
3.57328	1.33851
3.57082	1.42117
3.56836	1.4673
3.56591	1.45535
3.56346	1.42523
3.56101	1.39442
3.55857	1.41652
3.55613	1.40438
3.55369	1.33492
3.55126	1.35526
3.54883	1.35673
3.5464	1.36829
3.54397	1.43306
3.54155	1.49477
3.53914	1.48404
3.53672	1.39966
3.53431	1.32505
3.5319	1.29666
3.5295	1.3531
3.5271	1.41172
3.5247	1.32994
3.52231	1.34069
3.51991	1.41494
3.51753	1.41021
3.51514	1.38099
3.51276	1.40238
3.51038	1.41096
3.50801	1.34466
3.50563	1.291
3.50327	1.39465
3.5009	1.40678
3.49854	1.36801
3.49618	1.47433
3.49382	1.43978
3.49147	1.37973
3.48912	1.40257
3.48677	1.41312
3.48443	1.34871
3.48209	1.2592
3.47975	1.31851
3.47742	1.32967
3.47509	1.28034
3.47276	1.20705
3.47044	1.18911
3.46812	1.296
3.4658	1.41861
3.46348	1.44773
3.46117	1.39283
3.45886	1.38193
3.45656	1.47415
3.45425	1.4222
3.45195	1.37379
3.44966	1.43576
3.44736	1.4263
3.44507	1.36533
3.44279	1.33206
3.4405	1.29022
3.43822	1.27294
3.43594	1.36949
3.43367	1.3428
3.43139	1.30954
3.42912	1.35603
3.42686	1.37606
3.42459	1.36652
3.42233	1.43973
3.42007	1.46386
3.41782	1.38776
3.41557	1.30914
3.41332	1.30286
3.41108	1.37715
3.40883	1.4026
3.40659	1.34703
3.40435	1.28572
3.40212	1.28307
3.39989	1.30039
3.39766	1.3679
3.39544	1.38602
3.39322	1.3838
3.391	1.32221
3.38878	1.21423
3.38657	1.16002
3.38436	1.18458
3.38215	1.15709
3.37994	1.16812
3.37774	1.23246
3.37554	1.37849
3.37335	1.41724
3.37115	1.34728
3.36896	1.29783
3.36678	1.29369
3.36459	1.23976
3.36241	1.25741
3.36023	1.2948
3.35805	1.25748
3.35588	1.26048
3.35371	1.3092
3.35154	1.39427
3.34938	1.38644
3.34721	1.41437
3.34505	1.34946
3.3429	1.21865
3.34074	1.2739
3.33859	1.26514
3.33644	1.22664
3.3343	1.28779
3.33215	1.38036
3.33001	1.35876
3.32788	1.21652
3.32574	1.19466
3.32361	1.22549
3.32148	1.15791
3.31936	1.2162
3.31723	1.31645
3.31511	1.19123
3.31299	1.1251
3.31088	1.14514
3.30876	1.2303
3.30665	1.33158
3.30455	1.35962
3.30244	1.31716
3.30034	1.27923
3.29824	1.31423
3.29614	1.34644
3.29405	1.19767
3.29196	1.15785
3.28987	1.21536
3.28778	1.26856
3.2857	1.29347
3.28362	1.30311
3.28154	1.34189
3.27946	1.3445
3.27739	1.24107
3.27532	1.05983
3.27325	1.05505
3.27119	1.17668
3.26913	1.28424
3.26707	1.33457
3.26501	1.29471
3.26295	1.28206
3.2609	1.30828
3.25885	1.18392
3.2568	1.07981
3.25476	1.10631
3.25272	1.16309
3.25068	1.19178
3.24864	1.21641
3.24661	1.27135
3.24458	1.16786
3.24255	1.04576
3.24052	1.11352
3.2385	1.23433
3.23648	1.22409
3.23446	1.22112
3.23244	1.26666
3.23043	1.25201
3.22841	1.2759
3.2264	1.25891
3.2244	1.20796
3.22239	1.22293
3.22039	1.25053
3.21839	1.30531
3.2164	1.24784
3.2144	1.18417
3.21241	1.12224
3.21042	1.10197
3.20844	1.13988
3.20645	1.17964
3.20447	1.20831
3.20249	1.29224
3.20051	1.19843
3.19854	1.21292
3.19657	1.30892
3.1946	1.24318
3.19263	1.19911
3.19067	1.20092
3.1887	1.18152
3.18674	1.25171
3.18479	1.28101
3.18283	1.26012
3.18088	1.28443
3.17893	1.30781
3.17698	1.2412
3.17504	1.18374
3.17309	1.13652
3.17115	1.104
3.16921	1.1156
3.16728	1.19412
3.16534	1.25207
3.16341	1.29196
3.16148	1.32686
3.15956	1.32035
3.15763	1.3774
3.15571	1.3897
3.15379	1.28784
3.15187	1.16734
3.14996	1.19578
3.14805	1.22336
3.14614	1.21465
3.14423	1.1375
3.14232	1.19704
3.14042	1.33876
3.13852	1.38498
3.13662	1.28811
3.13472	1.14247
3.13283	1.18524
3.13094	1.36222
3.12905	1.46004
3.12716	1.389
3.12528	1.19514
3.12339	1.22617
3.12151	1.32728
3.11964	1.3324
3.11776	1.26277
3.11589	1.12631
3.11401	1.25709
3.11214	1.4113
3.11028	1.33053
3.10841	1.30008
3.10655	1.25681
3.10469	1.26055
3.10283	1.27537
3.10098	1.29841
3.09912	1.46114
3.09727	1.4646
3.09542	1.37376
3.09358	1.24123
3.09173	1.16371
3.08989	1.24837
3.08805	1.33175
3.08621	1.3909
3.08437	1.36197
3.08254	1.27761
3.08071	1.27875
3.07888	1.39506
3.07705	1.48481
3.07523	1.37611
3.0734	1.2965
3.07158	1.38407
3.06977	1.49286
3.06795	1.40127
3.06613	1.37996
3.06432	1.34384
3.06251	1.14557
3.0607	1.22975
3.0589	1.35668
3.0571	1.31935
3.05529	1.32403
3.05349	1.33568
3.0517	1.29437
3.0499	1.23765
3.04811	1.2052
3.04632	1.34697
3.04453	1.51633
3.04274	1.50508
3.04096	1.48956
3.03918	1.39239
3.0374	1.37808
3.03562	1.46901
3.03384	1.40934
3.03207	1.32541
3.03029	1.37352
3.02852	1.42835
3.02676	1.51395
3.02499	1.56778
3.02323	1.43035
3.02146	1.35672
3.0197	1.49474
3.01795	1.53834
3.01619	1.46048
3.01444	1.37638
3.01269	1.39031
3.01094	1.48269
3.00919	1.45896
3.00744	1.45796
3.0057	1.6355
3.00396	1.7475
3.00222	1.73203
3.00048	1.72636
2.99875	1.73746
2.99701	1.72223
2.99528	1.66651
2.99355	1.50465
2.99183	1.48855
2.9901	1.57819
2.98838	1.52569
2.98666	1.61053
2.98494	1.77339
2.98322	1.76855
2.9815	1.65872
2.97979	1.48287
2.97808	1.28252
2.97637	1.32469
2.97466	1.3489
2.97295	1.19876
2.97125	1.13263
2.96955	1.09839
2.96785	1.02395
2.96615	1.10922
2.96446	1.19473
2.96276	0.936508
2.96107	0.812771
2.95938	0.804841
2.95769	0.77391
2.95601	0.810557
2.95432	0.809821
2.95264	0.741175
2.95096	0.725377
2.94928	0.852952
2.9476	0.901728
2.94593	0.938389
2.94425	0.878493
2.94258	0.785394
2.94092	0.74002
2.93925	0.62828
2.93758	0.49667
2.93592	0.516706
2.93426	0.651676
2.9326	0.812621
2.93094	0.860795
2.92928	0.844792
2.92763	0.677101
2.92598	0.727244
2.92433	0.748519
2.92268	0.748962
2.92103	0.848734
2.91939	0.788787
2.91775	0.692307
2.9161	0.78672
2.91447	0.861283
2.91283	0.84558
2.91119	0.86738
2.90956	0.908332
2.90793	0.798416
2.9063	0.818707
2.90467	0.995949
2.90304	0.914773
2.90142	0.785805
2.89979	0.731265
2.89817	0.583745
2.89656	0.526384
2.89494	0.705398
2.89332	0.84324
2.89171	0.755881
2.8901	0.613086
2.88849	0.620743
2.88688	0.621615
2.88527	0.749541
2.88367	0.73821
2.88206	0.658447
2.88046	0.733266
2.87886	0.801752
2.87727	0.814498
2.87567	0.726117
2.87408	0.758523
2.87248	0.926155
2.87089	0.861792
2.8693	0.787121
2.86772	0.72252
2.86613	0.667916
2.86455	0.745213
2.86297	0.64661
2.86139	0.585067
2.85981	0.680348
2.85823	0.833203
2.85666	0.831885
2.85508	0.734524
2.85351	0.760791
2.85194	0.77837
2.85038	0.742841
2.84881	0.616563
2.84724	0.526997
2.84568	0.545579
2.84412	0.685186
2.84256	0.672772
2.841	0.63886
2.83945	0.743016
2.83789	0.813763
2.83634	0.970195
2.83479	0.85171
2.83324	0.754757
2.83169	0.719375
2.83015	0.749535
2.82861	0.752777
2.82706	0.743611
2.82552	0.751767
2.82398	0.699963
2.82245	0.743842
2.82091	0.725344
2.81938	0.652709
2.81784	0.735383
2.81631	0.780291
2.81479	0.801037
2.81326	0.724508
2.81173	0.671148
2.81021	0.668569
2.80869	0.706062
2.80716	0.736099
2.80565	0.815898
2.80413	0.889479
2.80261	0.834807
2.8011	0.725396
2.79959	0.775119
2.79808	0.881809
2.79657	0.902181
2.79506	0.947095
2.79355	0.920478
2.79205	0.846797
2.79055	0.801917
2.78904	0.886575
2.78754	0.905993
2.78605	0.903055
2.78455	0.85702
2.78306	0.917853
2.78156	0.945109
2.78007	0.885042
2.77858	0.986716
2.77709	1.13535
2.77561	1.19858
2.77412	1.19191
2.77264	1.07594
2.77116	1.05648
2.76968	0.986792
2.7682	0.908385
2.76672	0.934815
2.76524	0.9875
2.76377	1.14068
2.7623	1.07638
2.76083	0.943895
2.75936	0.979251
2.75789	1.22562
2.75642	1.51494
2.75496	1.57588
2.7535	1.5641
2.75203	1.53748
2.75057	1.48911
2.74912	1.49073
2.74766	1.58948
2.7462	1.81344
2.74475	1.95885
2.7433	2.00272
2.74185	2.18445
2.7404	2.30764
2.73895	2.37745
2.7375	2.71356
2.73606	2.94562
2.73462	2.99271
2.73318	3.16595
2.73174	3.44062
2.7303	3.61142
2.72886	3.7677
2.72742	3.99257
2.72599	4.31538
2.72456	4.59204
2.72313	4.83001
2.7217	5.14202
2.72027	5.41663
2.71884	5.49516
2.71742	5.74099
2.71599	5.94273
2.71457	6.18511
2.71315	6.58339
2.71173	6.9539
2.71032	7.25406
2.7089	7.42752
2.70748	7.64768
2.70607	7.96624
2.70466	8.21397
2.70325	8.36503
2.70184	8.61505
2.70043	8.92443
2.69903	9.14
2.69762	9.37135
2.69622	9.54976
2.69482	9.71165
2.69342	9.9657
2.69202	10.2144
2.69062	10.3725
2.68923	10.4977
2.68783	10.7804
2.68644	11.1319
2.68505	11.3098
2.68366	11.3777
2.68227	11.4669
2.68089	11.6232
2.6795	11.7298
2.67812	11.8957
2.67673	12.2845
2.67535	12.4246
2.67397	12.3822
2.6726	12.5248
2.67122	12.9016
2.66984	13.1955
2.66847	13.2466
2.6671	13.5147
2.66572	13.7372
2.66435	13.7494
2.66299	13.6905
2.66162	13.7156
2.66025	13.8529
2.65889	14.12
2.65753	14.2419
2.65616	14.3159
2.65481	14.4987
2.65345	14.6902
2.65209	14.8623
2.65073	15.0798
2.64938	15.1477
2.64803	15.1502
2.64667	15.197
2.64532	15.3863
2.64397	15.6808
2.64263	15.8932
2.64128	15.968
2.63994	15.9507
2.63859	16.0121
2.63725	16.3189
2.63591	16.4819
2.63457	16.6855
2.63323	16.7885
2.6319	16.8985
2.63056	17.1068
2.62923	17.1111
2.62789	17.1729
2.62656	17.4376
2.62523	17.4902
2.6239	17.5056
2.62258	17.6149
2.62125	17.8569
2.61993	17.9358
2.6186	17.8465
2.61728	18.0238
2.61596	18.0808
2.61464	18.0989
2.61332	18.1667
2.61201	18.1723
2.61069	18.2369
2.60938	18.3227
2.60807	18.5217
2.60675	18.6922
2.60544	18.7934
2.60414	18.8545
2.60283	18.8308
2.60152	18.7904
2.60022	18.7448
2.59891	18.8393
2.59761	19.05
2.59631	19.2717
2.59501	19.4138
2.59371	19.1722
2.59242	19.0725
2.59112	19.0156
2.58983	19.0563
2.58853	19.259
2.58724	19.3383
2.58595	19.243
2.58466	19.2782
2.58338	19.3539
2.58209	19.3467
2.5808	19.4017
2.57952	19.2788
2.57824	19.1916
2.57695	19.2063
2.57567	19.1927
2.5744	19.2929
2.57312	19.2645
2.57184	19.0566
2.57057	19.2163
2.56929	19.278
2.56802	19.0334
2.56675	18.9986
2.56548	19.1166
2.56421	19.0399
2.56294	18.8706
2.56168	18.8142
2.56041	18.6455
2.55915	18.4962
2.55789	18.5885
2.55662	18.6345
2.55536	18.6299
2.5541	18.5633
2.55285	18.4088
2.55159	18.1531
2.55034	18.0375
2.54908	17.9137
2.54783	17.9856
2.54658	18.0285
2.54533	17.9027
2.54408	17.8643
2.54283	17.7925
2.54159	17.647
2.54034	17.5519
2.5391	17.5561
2.53785	17.5084
2.53661	17.5062
2.53537	17.4945
2.53413	17.4097
2.53289	17.346
2.53166	17.3465
2.53042	17.4103
2.52919	17.3731
2.52795	17.356
2.52672	17.467
2.52549	17.5301
2.52426	17.5432
2.52303	17.6851
2.52181	17.9416
2.52058	18.0059
2.51936	17.9923
2.51813	18.136
2.51691	18.263
2.51569	18.4509
2.51447	18.7822
2.51325	18.9107
2.51203	18.9513
2.51082	19.2001
2.5096	19.3525
2.50839	19.4522
2.50717	19.7644
2.50596	19.9843
2.50475	20.0531
2.50354	20.2611
2.50233	20.5197
2.50113	20.7272
2.49992	20.8595
2.49872	20.9506
2.49751	21.0231
2.49631	21.1269
2.49511	21.4018
2.49391	21.5988
2.49271	21.6951
2.49151	21.841
2.49031	22.0464
2.48912	22.193
2.48792	22.379
2.48673	22.659
2.48554	22.8371
2.48435	22.724
2.48316	22.6921
2.48197	22.9669
2.48078	23.2576
2.4796	23.4752
2.47841	23.5195
2.47723	23.5937
2.47604	23.8235
2.47486	23.9752
2.47368	24.0308
2.4725	24.1357
2.47132	24.3238
2.47014	24.5197
2.46897	24.6366
2.46779	24.7313
2.46662	24.8192
2.46545	24.8335
2.46427	24.8411
2.4631	24.9586
2.46193	25.1723
2.46077	25.2736
2.4596	25.3057
2.45843	25.3307
2.45727	25.4568
2.4561	25.5671
2.45494	25.6823
2.45378	25.7304
2.45262	25.7158
2.45146	25.6877
2.4503	25.6955
2.44914	25.7501
2.44799	25.6552
2.44683	25.7292
2.44568	25.9263
2.44452	25.935
2.44337	25.9004
2.44222	26.0159
2.44107	26.1612
2.43992	26.141
2.43877	26.1166
2.43763	26.1084
2.43648	26.2231
2.43534	26.3975
2.43419	26.4839
2.43305	26.5954
2.43191	26.5071
2.43077	26.542
2.42963	26.668
2.42849	26.8253
2.42736	27.035
2.42622	27.2568
2.42509	27.4008
2.42395	27.3276
2.42282	27.383
2.42169	27.6255
2.42056	27.7363
2.41943	27.902
2.4183	28.1321
2.41717	28.1918
2.41605	28.2334
2.41492	28.4456
2.4138	28.6913
2.41267	28.7383
2.41155	28.8902
2.41043	29.0955
2.40931	29.2962
2.40819	29.4379
2.40707	29.5405
2.40595	29.6792
2.40484	29.8563
2.40372	30.0757
2.40261	30.2722
2.4015	30.433
2.40039	30.6389
2.39928	30.7814
2.39817	30.8419
2.39706	30.9735
2.39595	31.2139
2.39484	31.493
2.39374	31.7089
2.39263	31.7266
2.39153	31.7954
2.39043	32.0905
2.38932	32.3862
2.38822	32.4836
2.38712	32.6205
2.38603	32.7225
2.38493	32.949
2.38383	33.1478
2.38274	33.1942
2.38164	33.4132
2.38055	33.6582
2.37946	33.7524
2.37836	33.8497
2.37727	34.0263
2.37618	34.2218
2.3751	34.3557
2.37401	34.4438
2.37292	34.5083
2.37184	34.6996
2.37075	34.9053
2.36967	34.9457
2.36859	34.9101
2.3675	34.9222
2.36642	34.9957
2.36534	35.2135
2.36427	35.3773
2.36319	35.5141
2.36211	35.5741
2.36104	35.6176
2.35996	35.6583
2.35889	35.5143
2.35781	35.4729
2.35674	35.6037
2.35567	35.8246
2.3546	35.9781
2.35353	35.8948
2.35247	35.8652
2.3514	35.9983
2.35033	36.1097
2.34927	36.2147
2.3482	36.2529
2.34714	36.3272
2.34608	36.3272
2.34502	36.3278
2.34396	36.3995
2.3429	36.4861
2.34184	36.4954
2.34078	36.4815
2.33973	36.5056
2.33867	36.5074
2.33762	36.5722
2.33656	36.6083
2.33551	36.5851
2.33446	36.7498
2.33341	36.8687
2.33236	36.7412
2.33131	36.6634
2.33026	36.656
2.32922	36.6873
2.32817	36.67
2.32712	36.7137
2.32608	36.7801
2.32504	36.7025
2.324	36.697
2.32295	36.7577
2.32191	36.7448
2.32087	36.6457
2.31984	36.6037
2.3188	36.7158
2.31776	36.8937
2.31673	36.9284
2.31569	36.82
2.31466	36.7337
2.31362	36.8438
2.31259	36.7786
2.31156	36.7746
2.31053	36.865
2.3095	36.7482
2.30847	36.6167
2.30745	36.7759
2.30642	36.8189
2.3054	36.6915
2.30437	36.6983
2.30335	36.819
2.30232	36.8363
2.3013	36.8547
2.30028	36.8502
2.29926	36.7293
2.29824	36.7671
2.29722	36.719
2.29621	36.6542
2.29519	36.6011
2.29417	36.7343
2.29316	36.8331
2.29215	36.9217
2.29113	36.9071
2.29012	36.7823
2.28911	36.8503
2.2881	36.8088
2.28709	36.705
2.28608	36.6271
2.28507	36.6065
2.28407	36.7679
2.28306	36.8122
2.28206	36.6888
2.28105	36.7247
2.28005	36.768
2.27905	36.7891
2.27805	36.7255
2.27705	36.7078
2.27605	36.8528
2.27505	36.8132
2.27405	36.7326
2.27305	36.7069
2.27206	36.8308
2.27106	36.756
2.27007	36.6329
2.26907	36.7233
2.26808	36.8579
2.26709	36.9404
2.2661	36.9666
2.26511	36.9178
2.26412	36.7748
2.26313	36.7422
2.26214	36.8801
2.26116	36.8293
2.26017	36.736
2.25919	36.8219
2.2582	36.9084
2.25722	36.9095
2.25624	36.8502
2.25526	36.9015
2.25428	36.917
2.2533	36.8019
2.25232	36.7665
2.25134	36.9123
2.25036	37.0275
2.24939	37.1359
2.24841	37.1876
2.24744	37.1043
2.24646	36.9521
2.24549	36.9485
2.24452	37.0325
2.24355	37.092
2.24257	37.2581
2.24161	37.2752
2.24064	37.1814
2.23967	37.0756
2.2387	37.0847
2.23774	37.0304
2.23677	37.1135
2.23581	37.2845
2.23484	37.2695
2.23388	37.2115
2.23292	37.162
2.23196	37.23
2.231	37.2962
2.23004	37.4363
2.22908	37.4973
2.22812	37.4455
2.22716	37.2708
2.22621	37.3816
2.22525	37.6563
2.2243	37.6566
2.22334	37.5661
2.22239	37.5303
2.22144	37.595
2.22049	37.6877
2.21953	37.72
2.21859	37.6722
2.21764	37.6394
2.21669	37.7206
2.21574	37.9475
2.21479	38.078
2.21385	38.1999
2.2129	38.2548
2.21196	38.1415
2.21102	38.1125
2.21007	38.1021
2.20913	38.1901
2.20819	38.3748
2.20725	38.461
2.20631	38.3931
2.20537	38.4527
2.20444	38.3623
2.2035	38.2776
2.20256	38.4276
2.20163	38.5459
2.20069	38.4573
2.19976	38.3681
2.19883	38.4018
2.19789	38.5142
2.19696	38.5251
2.19603	38.6301
2.1951	38.7578
2.19417	38.6736
2.19325	38.6
2.19232	38.5069
2.19139	38.3945
2.19047	38.5238
2.18954	38.66
2.18862	38.6241
2.18769	38.5925
2.18677	38.6512
2.18585	38.6899
2.18493	38.6049
2.18401	38.3523
2.18309	38.2742
2.18217	38.1719
2.18125	38.1482
2.18033	38.1105
2.17942	38.0245
2.1785	37.9402
2.17759	37.9273
2.17667	37.7317
2.17576	37.4478
2.17485	37.2998
2.17393	37.3221
2.17302	37.4917
2.17211	37.4319
2.1712	37.1895
2.17029	36.9948
2.16939	36.8655
2.16848	36.671
2.16757	36.5242
2.16667	36.4616
2.16576	36.2497
2.16486	36.1742
2.16395	36.0925
2.16305	35.8874
2.16215	35.842
2.16125	35.7306
2.16035	35.6259
2.15945	35.6472
2.15855	35.6191
2.15765	35.4619
2.15675	35.3323
2.15586	35.2658
2.15496	35.0086
2.15406	34.9958
2.15317	35.2455
2.15228	35.2082
2.15138	35.1082
2.15049	35.3273
2.1496	35.4691
2.14871	35.566
2.14782	35.6869
2.14693	35.7476
2.14604	35.7418
2.14515	35.7748
2.14427	36.0537
2.14338	36.2673
2.14249	36.3304
2.14161	36.4536
2.14072	36.638
2.13984	36.8665
2.13896	37.1027
2.13808	37.2044
2.13719	37.1412
2.13631	37.317
2.13543	37.411
2.13455	37.5426
2.13368	37.5849
2.1328	37.704
2.13192	37.9153
2.13105	37.9451
2.13017	37.8299
2.1293	37.8773
2.12842	38.0337
2.12755	37.9143
2.12668	38.0023
2.1258	38.1919
2.12493	38.1543
2.12406	38.0069
2.12319	37.9598
2.12232	38.0251
2.12145	38.003
2.12059	37.9828
2.11972	38.052
2.11885	38.0811
2.11799	37.9731
2.11712	37.8926
2.11626	37.9233
2.1154	37.942
2.11453	37.8671
2.11367	37.8604
2.11281	37.7462
2.11195	37.7469
2.11109	37.7632
2.11023	37.6862
2.10937	37.5752
2.10851	37.5358
2.10766	37.4909
2.1068	37.6385
2.10594	37.8259
2.10509	37.6074
2.10423	37.4351
2.10338	37.5474
2.10253	37.5866
2.10168	37.4784
2.10082	37.4164
2.09997	37.6173
2.09912	37.6482
2.09827	37.4615
2.09742	37.4003
2.09658	37.3687
2.09573	37.3474
2.09488	37.5173
2.09404	37.5039
2.09319	37.3874
2.09235	37.2312
2.0915	37.2231
2.09066	37.3595
2.08982	37.6659
2.08897	37.8563
2.08813	37.7825
2.08729	37.4628
2.08645	37.1965
2.08561	37.4488
2.08477	37.4881
2.08394	37.3768
2.0831	37.3125
2.08226	37.3549
2.08143	37.5908
2.08059	37.3216
2.07976	36.9501
2.07892	37.1449
2.07809	37.5041
2.07726	37.6864
2.07643	37.8061
2.07559	37.5148
2.07476	37.0699
2.07393	37.0303
2.0731	37.2529
2.07228	37.4489
2.07145	37.578
2.07062	37.4485
2.06979	37.3381
2.06897	37.5236
2.06814	37.5021
2.06732	37.2822
2.06649	36.9381
2.06567	36.9684
2.06485	37.2675
2.06403	37.1992
2.0632	37.1699
2.06238	37.4201
2.06156	37.453
2.06074	37.2078
2.05993	37.116
2.05911	37.0017
2.05829	36.9102
2.05747	36.8802
2.05666	36.9608
2.05584	36.9914
2.05503	36.929
2.05421	36.7747
2.0534	36.631
2.05259	36.7065
2.05177	36.7872
2.05096	36.7486
2.05015	36.5327
2.04934	36.4719
2.04853	36.5407
2.04772	36.7273
2.04691	36.6332
2.04611	36.27
2.0453	36.2319
2.04449	36.4434
2.04369	36.6268
2.04288	36.6388
2.04208	36.2618
2.04127	36.1113
2.04047	36.1303
2.03967	36.379
2.03886	36.3774
2.03806	36.1301
2.03726	36.0865
2.03646	36.1733
2.03566	36.2096
2.03486	36.1173
2.03407	35.9649
2.03327	35.8633
2.03247	35.8433
2.03167	35.8222
2.03088	35.7795
2.03008	35.9585
2.02929	36.0672
2.0285	36.0889
2.0277	35.9964
2.02691	35.4598
2.02612	35.1464
2.02533	35.4852
2.02453	35.6051
2.02374	35.3307
2.02295	35.2802
2.02217	35.4178
2.02138	35.5242
2.02059	35.6372
2.0198	35.4371
2.01902	35.4696
2.01823	35.8293
2.01744	35.8713
2.01666	35.4387
2.01588	35.1504
2.01509	35.1582
2.01431	35.1708
2.01353	35.1016
2.01275	34.7753
2.01196	34.7494
2.01118	34.9469
2.0104	34.8236
2.00963	34.7416
2.00885	34.7763
2.00807	34.8471
2.00729	34.8021
2.00651	34.9947
2.00574	35.1516
2.00496	34.9192
2.00419	34.8259
2.00341	34.7293
2.00264	34.5171
2.00187	34.4127
2.00109	34.4899
2.00032	34.4624
