Name: Magnesite MgCO_3
Type: Mineral
Class: Carbonates
Subclass: 
Particle Size: 125-500um
Sample No.: C-6A
Owner: JPL
Wavelength range: IR
Origin: USA, California, Riverside County
Collected by Ward's
Description: 





Measurement: Hemispherical reflectance
First Column: X
Second Column: Y
X Units:  Wavelength (micrometers)
Y Units:  Reflectance (percent)
First X Value: 15.3853
Last X Value: 2.00032
Number of X Values: 2256
Additional information: c06aa.txt
 
15.3853	0.959984
15.3397	0.565834
15.2945	0.470201
15.2495	0.790083
15.2048	0.879672
15.1603	0.848546
15.1161	1.00573
15.0722	1.15721
15.0285	1.2715
14.9851	1.25059
14.9419	1.331
14.8989	1.25639
14.8563	1.07419
14.8138	1.10301
14.7716	1.26521
14.7296	1.31331
14.6879	1.44303
14.6464	1.65434
14.6052	1.67665
14.5641	1.42736
14.5233	1.3557
14.4828	1.35896
14.4424	1.16529
14.4023	1.15115
14.3624	1.33801
14.3227	1.50346
14.2833	1.4451
14.244	1.47283
14.205	1.32576
14.1662	1.3424
14.1276	1.60411
14.0892	1.69357
14.051	1.63799
14.0131	1.54598
13.9753	1.44651
13.9377	1.60351
13.9004	1.67033
13.8632	1.68189
13.8262	1.66857
13.7895	1.90372
13.7529	1.78674
13.7165	1.68857
13.6803	1.44057
13.6443	1.41852
13.6085	1.71331
13.5729	1.70848
13.5374	1.63403
13.5022	1.69318
13.4671	1.87514
13.4322	2.05737
13.3975	2.06411
13.363	1.97767
13.3286	1.63541
13.2944	1.12677
13.2604	0.781422
13.2266	0.658343
13.193	0.85239
13.1595	0.961651
13.1262	1.19293
13.093	1.27481
13.06	1.18974
13.0272	1.34289
12.9946	1.32094
12.9621	1.27423
12.9298	1.48419
12.8976	1.53002
12.8656	1.49567
12.8337	1.55509
12.8021	1.71778
12.7705	1.88519
12.7391	1.77496
12.7079	1.69611
12.6769	1.7654
12.6459	1.93784
12.6152	1.97419
12.5845	1.88369
12.5541	1.91802
12.5238	2.0407
12.4936	1.9254
12.4635	1.84953
12.4337	2.04028
12.4039	2.16081
12.3743	2.00428
12.3448	2.16433
12.3155	2.1924
12.2863	2.11533
12.2573	2.2045
12.2284	2.1959
12.1996	2.23074
12.171	2.28035
12.1425	2.25744
12.1141	2.42595
12.0859	2.46545
12.0578	2.25556
12.0298	2.21359
12.0019	2.31853
11.9742	2.52872
11.9466	2.64391
11.9192	2.61858
11.8918	2.65086
11.8646	2.72278
11.8375	2.69546
11.8106	2.66108
11.7837	2.81674
11.757	2.97613
11.7304	2.98501
11.7039	2.67929
11.6776	2.38129
11.6513	2.67108
11.6252	3.15357
11.5992	3.35897
11.5733	3.50488
11.5475	3.66236
11.5219	3.71063
11.4963	3.7316
11.4709	3.75539
11.4455	3.84757
11.4203	4.00573
11.3952	4.2271
11.3702	4.38887
11.3454	4.5132
11.3206	4.54161
11.2959	4.59035
11.2714	4.89247
11.2469	5.13403
11.2226	5.18284
11.1983	5.42119
11.1742	5.68198
11.1502	5.86635
11.1263	6.16689
11.1024	6.51054
11.0787	6.94248
11.0551	7.54255
11.0316	8.09049
11.0081	7.99264
10.9848	7.54133
10.9616	7.00751
10.9385	6.41811
10.9154	5.94233
10.8925	5.7576
10.8697	5.48665
10.8469	5.13108
10.8243	4.81211
10.8017	4.45836
10.7793	4.29704
10.7569	4.18124
10.7346	3.88263
10.7125	3.66052
10.6904	3.63976
10.6684	3.55833
10.6465	3.32451
10.6247	3.144
10.6029	3.08461
10.5813	2.96273
10.5597	2.7978
10.5383	2.66434
10.5169	2.59497
10.4956	2.53368
10.4744	2.4677
10.4533	2.4866
10.4323	2.47431
10.4113	2.43808
10.3904	2.43877
10.3697	2.39622
10.349	2.30654
10.3284	2.29982
10.3078	2.40497
10.2874	2.48908
10.267	2.44346
10.2467	2.37845
10.2265	2.42498
10.2064	2.32994
10.1863	2.25477
10.1663	2.37129
10.1464	2.46009
10.1266	2.38085
10.1069	2.32805
10.0872	2.32319
10.0676	2.34637
10.0481	2.42279
10.0287	2.38262
10.0093	2.55533
9.99005	2.73002
9.97084	2.75798
9.95169	2.69632
9.93263	2.59633
9.91364	2.60122
9.89472	2.7263
9.87587	2.7863
9.8571	2.79324
9.83839	2.74455
9.81976	2.84656
9.80119	2.86549
9.78271	2.87979
9.76428	2.92291
9.74592	2.99578
9.72764	2.99411
9.70943	2.85425
9.69128	2.81667
9.6732	2.89556
9.65518	2.88526
9.63724	2.85728
9.61935	2.90222
9.60155	2.90105
9.5838	3.02356
9.56611	3.15026
9.5485	3.0856
9.53094	2.73555
9.51345	2.68066
9.49604	2.8601
9.47867	2.84895
9.46137	2.78727
9.44414	2.73364
9.42697	2.70163
9.40986	2.65767
9.39281	2.59502
9.37583	2.68761
9.35891	2.84123
9.34204	2.73622
9.32524	2.67977
9.3085	2.70114
9.29182	2.72672
9.27519	2.72615
9.25863	2.72943
9.24213	2.67277
9.22568	2.49334
9.2093	2.31969
9.19297	2.4603
9.17669	2.64022
9.16048	2.89112
9.14433	2.96361
9.12823	2.87447
9.11218	2.82242
9.0962	2.87113
9.08027	2.87973
9.06439	2.95438
9.04858	3.00562
9.03281	3.14831
9.0171	3.24182
9.00145	3.16381
8.98585	3.36228
8.9703	3.59884
8.9548	3.71949
8.93937	3.94065
8.92398	3.88049
8.90865	3.80833
8.89337	3.90919
8.87814	3.93888
8.86296	4.08959
8.84784	4.19867
8.83277	4.1818
8.81774	4.13596
8.80277	4.12467
8.78786	4.28989
8.77298	4.39726
8.75816	4.56757
8.7434	4.67859
8.72868	4.76121
8.714	4.88039
8.69938	4.85942
8.68481	4.81507
8.67029	4.85844
8.65581	4.89652
8.64139	4.95135
8.62701	5.10797
8.61268	5.31086
8.5984	5.29386
8.58416	5.21285
8.56997	5.33125
8.55583	5.20531
8.54174	5.00799
8.52769	4.93478
8.51368	5.0569
8.49973	5.06492
8.48582	4.89167
8.47195	4.83017
8.45813	4.89805
8.44436	4.77062
8.43062	4.50576
8.41693	4.39145
8.4033	4.53618
8.3897	4.5931
8.37614	4.60518
8.36264	4.60745
8.34917	4.54721
8.33574	4.64667
8.32236	4.70226
8.30903	4.56144
8.29573	4.43757
8.28248	4.36502
8.26927	4.39891
8.2561	4.56685
8.24298	4.66975
8.2299	4.64385
8.21685	4.64577
8.20385	4.6123
8.19089	4.55343
8.17797	4.4946
8.16509	4.45864
8.15225	4.57067
8.13946	4.6836
8.1267	4.7468
8.11398	4.72584
8.10131	4.83924
8.08867	4.92803
8.07606	4.8995
8.0635	4.80054
8.05099	4.75283
8.0385	4.75362
8.02606	4.78373
8.01366	4.85357
8.00129	4.91363
7.98896	5.04961
7.97667	5.27126
7.96442	5.37971
7.9522	5.47549
7.94002	5.72756
7.92788	6.05426
7.91578	6.27682
7.90371	6.39206
7.89168	6.5536
7.87969	6.72009
7.86773	6.81326
7.85581	6.88195
7.84392	7.16588
7.83207	7.26669
7.82026	7.17124
7.80849	7.25611
7.79674	7.41954
7.78503	7.44286
7.77337	7.38949
7.76173	7.42465
7.75012	7.46943
7.73856	7.50616
7.72703	7.44398
7.71553	7.3522
7.70406	7.34878
7.69263	7.38471
7.68123	7.39324
7.66987	7.32413
7.65855	7.38392
7.64725	7.4748
7.63598	7.38711
7.62475	7.30217
7.61356	7.23197
7.60239	7.19161
7.59126	7.17173
7.58017	7.16438
7.5691	7.16168
7.55806	7.1405
7.54707	7.09546
7.5361	7.11905
7.52516	7.09908
7.51425	7.13084
7.50338	7.13538
7.49253	6.99223
7.48172	6.88704
7.47094	6.87275
7.46019	6.83644
7.44947	6.82756
7.43879	6.81426
7.42813	6.66085
7.4175	6.52182
7.4069	6.5383
7.39634	6.47771
7.3858	6.40551
7.37529	6.38511
7.36482	6.38469
7.35437	6.36275
7.34396	6.29778
7.33357	6.28913
7.32321	6.44321
7.31288	6.40807
7.30258	6.25781
7.29231	6.21817
7.28207	6.25878
7.27185	6.21829
7.26167	6.0616
7.25152	5.97525
7.24139	5.90856
7.23129	5.84549
7.22122	5.7428
7.21117	5.61777
7.20116	5.50897
7.19117	5.50182
7.18121	5.43556
7.17128	5.35707
7.16137	5.32212
7.1515	5.31743
7.14164	5.33561
7.13182	5.35953
7.12203	5.33821
7.11225	5.28498
7.10251	5.28618
7.0928	5.34453
7.08311	5.42761
7.07344	5.50906
7.06381	5.4738
7.0542	5.47324
7.04461	5.61124
7.03506	5.88861
7.02552	6.30746
7.01601	6.78119
7.00653	7.09168
6.99708	7.15762
6.98765	7.18487
6.97824	7.20095
6.96886	7.09047
6.95951	6.9256
6.95018	6.98084
6.94087	7.06902
6.9316	7.0428
6.92234	7.07745
6.91311	7.04489
6.90391	6.95889
6.89473	6.85709
6.88557	6.83595
6.87644	6.82001
6.86733	6.80818
6.85824	6.77013
6.84918	6.80298
6.84015	6.86438
6.83114	6.84849
6.82215	6.85612
6.81319	6.9185
6.80424	6.98691
6.79532	7.02175
6.78643	7.0994
6.77756	7.16885
6.76871	7.17846
6.75989	7.23115
6.75109	7.30507
6.74231	7.39816
6.73355	7.39782
6.72482	7.40702
6.71611	7.51142
6.70742	7.62616
6.69875	7.70461
6.69011	7.77586
6.68149	7.82959
6.67289	7.91294
6.66431	8.02664
6.65576	8.08329
6.64722	8.12779
6.63871	8.13671
6.63022	8.28201
6.62175	8.46048
6.61331	8.56797
6.60488	8.67608
6.59648	8.88163
6.5881	9.07906
6.57974	9.15723
6.5714	9.29906
6.56308	9.53082
6.55478	9.73385
6.54651	9.9915
6.53825	10.235
6.53001	10.4289
6.5218	10.6317
6.51361	10.9024
6.50544	11.0864
6.49729	11.1713
6.48915	11.4001
6.48104	11.7056
6.47295	11.9799
6.46488	12.2727
6.45683	12.5742
6.4488	12.9338
6.44079	13.2058
6.4328	13.4138
6.42482	13.5825
6.41687	13.6464
6.40894	13.9592
6.40103	14.4166
6.39314	14.6673
6.38526	14.9247
6.37741	15.1085
6.36957	15.2776
6.36176	15.5305
6.35396	15.6117
6.34618	15.5354
6.33843	15.6857
6.33069	15.8444
6.32297	15.933
6.31527	16.0571
6.30758	16.1726
6.29992	16.3966
6.29227	16.7038
6.28465	17.2226
6.27704	17.6693
6.26945	17.5185
6.26188	16.7596
6.25432	15.6665
6.24679	14.4662
6.23927	13.2817
6.23177	12.1246
6.22429	11.1462
6.21683	10.3327
6.20938	9.60137
6.20195	8.97603
6.19454	8.26799
6.18715	7.62027
6.17978	7.30058
6.17242	6.98573
6.16508	6.60689
6.15776	6.31385
6.15045	6.15446
6.14317	5.98644
6.1359	5.89168
6.12864	5.84668
6.12141	5.80117
6.11419	5.71702
6.10699	5.59575
6.0998	5.50426
6.09263	5.3808
6.08549	5.10873
6.07835	4.83699
6.07123	4.57512
6.06413	4.35689
6.05705	4.1668
6.04998	3.89662
6.04293	3.79121
6.0359	3.69228
6.02888	3.54178
6.02187	3.48025
6.01489	3.45233
6.00792	3.40547
6.00096	3.25923
5.99403	3.08822
5.98711	3.0473
5.9802	3.02865
5.97331	2.93783
5.96644	2.87128
5.95958	2.8342
5.95274	2.71869
5.94591	2.64525
5.9391	2.55621
5.9323	2.54049
5.92552	2.56226
5.91876	2.4604
5.91201	2.45008
5.90528	2.44051
5.89856	2.39418
5.89186	2.32419
5.88517	2.31803
5.8785	2.35784
5.87184	2.26499
5.8652	2.10274
5.85857	2.0936
5.85196	2.10735
5.84536	2.12282
5.83878	2.15278
5.83221	2.2228
5.82566	2.26666
5.81912	2.29603
5.81259	2.27867
5.80608	2.24873
5.79959	2.24109
5.79311	2.2392
5.78665	2.26362
5.78019	2.24387
5.77376	2.19961
5.76734	2.19763
5.76093	2.29602
5.75453	2.31804
5.74815	2.27918
5.74179	2.27174
5.73543	2.31821
5.7291	2.3878
5.72277	2.33833
5.71646	2.29482
5.71017	2.36788
5.70389	2.36404
5.69762	2.34507
5.69136	2.33867
5.68513	2.31217
5.6789	2.29144
5.67268	2.22498
5.66648	2.213
5.6603	2.23147
5.65413	2.21788
5.64797	2.17437
5.64182	2.1588
5.63569	2.20276
5.62957	2.18778
5.62347	2.05658
5.61737	2.02495
5.61129	2.08666
5.60522	2.07797
5.59917	2.0163
5.59313	1.97642
5.5871	1.95282
5.58109	1.90238
5.57509	1.80792
5.5691	1.77364
5.56312	1.68785
5.55716	1.55649
5.55121	1.49205
5.54528	1.44693
5.53935	1.35762
5.53344	1.35917
5.52754	1.33243
5.52166	1.22761
5.51578	1.14087
5.50992	1.11512
5.50407	1.15777
5.49823	1.10631
5.49241	1.00253
5.4866	0.9511
5.4808	0.986596
5.47501	1.01198
5.46923	0.979359
5.46347	0.960015
5.45772	1.05917
5.45198	1.1525
5.44625	1.12565
5.44054	1.12773
5.43484	1.24059
5.42914	1.28855
5.42347	1.36607
5.4178	1.4764
5.41214	1.56358
5.4065	1.71194
5.40087	1.93784
5.39525	2.16384
5.38964	2.3428
5.38404	2.53773
5.37846	2.69516
5.37288	2.92914
5.36732	3.14992
5.36177	3.378
5.35623	3.64796
5.35071	3.87708
5.34519	4.19918
5.33968	4.53749
5.33419	4.73321
5.32871	4.87977
5.32324	5.09596
5.31778	5.39103
5.31233	5.61203
5.30689	5.7943
5.30147	6.03141
5.29605	6.16497
5.29065	6.23713
5.28525	6.35725
5.27987	6.4791
5.2745	6.52825
5.26914	6.57237
5.26379	6.71129
5.25845	6.76193
5.25312	6.73932
5.24781	6.82239
5.2425	6.92527
5.23721	7.05
5.23192	7.17084
5.22665	7.35312
5.22138	7.63126
5.21613	7.99921
5.21089	8.35478
5.20566	8.6594
5.20044	8.99783
5.19522	9.37344
5.19002	9.68133
5.18483	10.04
5.17965	10.4187
5.17448	10.7281
5.16933	11.0607
5.16418	11.2819
5.15904	11.5668
5.15391	11.8515
5.14879	12.1043
5.14368	12.4199
5.13859	12.6758
5.1335	12.8619
5.12842	13.0369
5.12335	13.2073
5.1183	13.3295
5.11325	13.4452
5.10821	13.5784
5.10318	13.5997
5.09817	13.6367
5.09316	13.6502
5.08816	13.5477
5.08317	13.3859
5.07819	13.0608
5.07322	12.6433
5.06826	12.3028
5.06331	11.9729
5.05837	11.8542
5.05344	11.9894
5.04852	12.4472
5.04361	12.9651
5.03871	13.4331
5.03382	13.9467
5.02894	14.4805
5.02406	14.8733
5.0192	15.1522
5.01435	15.3907
5.0095	15.6563
5.00467	15.9276
4.99984	16.0732
4.99502	16.2509
4.99021	16.4339
4.98542	16.5726
4.98063	16.7136
4.97585	16.7666
4.97108	16.8564
4.96632	16.9712
4.96156	17.0159
4.95682	17.0328
4.95209	17.0968
4.94736	17.1333
4.94264	17.1577
4.93794	17.2082
4.93324	17.1882
4.92855	17.2054
4.92387	17.2486
4.9192	17.3154
4.91453	17.329
4.90988	17.3308
4.90524	17.3685
4.9006	17.3876
4.89597	17.4125
4.89135	17.5122
4.88674	17.5281
4.88214	17.4756
4.87755	17.453
4.87296	17.4508
4.86839	17.4458
4.86382	17.5547
4.85926	17.5889
4.85471	17.5413
4.85017	17.5483
4.84564	17.5224
4.84111	17.4576
4.8366	17.4246
4.83209	17.4248
4.82759	17.4894
4.8231	17.5848
4.81862	17.5373
4.81415	17.4058
4.80968	17.406
4.80522	17.4116
4.80077	17.4075
4.79633	17.3653
4.7919	17.4108
4.78747	17.3694
4.78306	17.3209
4.77865	17.3085
4.77425	17.2762
4.76986	17.2196
4.76547	17.1799
4.7611	17.1195
4.75673	17.0708
4.75237	17.0587
4.74802	16.9954
4.74367	16.9126
4.73934	16.8208
4.73501	16.7911
4.73069	16.8519
4.72638	16.7745
4.72207	16.669
4.71777	16.6142
4.71348	16.5199
4.7092	16.4203
4.70493	16.2949
4.70066	16.1797
4.69641	16.1074
4.69216	15.9782
4.68791	15.8795
4.68368	15.7994
4.67945	15.5963
4.67523	15.3285
4.67102	15.2297
4.66682	15.0369
4.66262	14.7448
4.65843	14.5502
4.65425	14.4008
4.65007	14.1444
4.64591	13.8698
4.64175	13.5678
4.6376	13.2219
4.63345	12.8635
4.62932	12.539
4.62519	12.2282
4.62106	11.8608
4.61695	11.551
4.61284	11.2195
4.60874	10.8318
4.60465	10.6927
4.60056	10.6122
4.59648	10.4417
4.59241	10.3715
4.58835	10.3477
4.58429	10.2778
4.58024	10.1647
4.5762	10.165
4.57216	10.2152
4.56814	10.2269
4.56411	10.2749
4.5601	10.3845
4.55609	10.4813
4.55209	10.5698
4.5481	10.7047
4.54411	10.9945
4.54013	11.1844
4.53616	11.2134
4.5322	11.4041
4.52824	11.6242
4.52429	11.8386
4.52034	12.0206
4.51641	12.1551
4.51247	12.3114
4.50855	12.4309
4.50463	12.5434
4.50072	12.6672
4.49682	12.7401
4.49292	12.8141
4.48903	12.8966
4.48515	12.9704
4.48127	13.0603
4.4774	13.0841
4.47354	13.12
4.46968	13.1624
4.46584	13.1786
4.46199	13.2862
4.45815	13.2885
4.45432	13.2734
4.4505	13.3539
4.44668	13.4086
4.44287	13.4185
4.43907	13.4392
4.43527	13.4909
4.43148	13.5564
4.4277	13.5403
4.42392	13.563
4.42015	13.5923
4.41638	13.5713
4.41262	13.5653
4.40887	13.6013
4.40513	13.5994
4.40139	13.6227
4.39765	13.7206
4.39393	13.8438
4.39021	13.8811
4.38649	13.9226
4.38278	14.0781
4.37908	14.2348
4.37539	14.2386
4.3717	14.3154
4.36801	14.3824
4.36434	14.4235
4.36067	14.4759
4.357	14.5481
4.35335	14.7047
4.34969	14.8425
4.34605	14.9614
4.34241	14.997
4.33877	14.9817
4.33514	15.0195
4.33152	14.9989
4.32791	14.9865
4.3243	15.0393
4.32069	15.062
4.3171	15.0602
4.31351	15.1315
4.30992	15.2144
4.30634	15.1713
4.30277	15.2019
4.2992	15.1701
4.29564	15.1707
4.29208	15.3059
4.28853	15.4532
4.28499	15.5087
4.28145	15.5765
4.27792	15.5791
4.27439	15.5556
4.27087	15.597
4.26735	15.6034
4.26384	15.5624
4.26034	15.5694
4.25684	15.6498
4.25335	15.7352
4.24986	15.8414
4.24638	15.9632
4.24291	15.9708
4.23944	16.1043
4.23598	16.2966
4.23252	16.3891
4.22906	16.505
4.22562	16.5981
4.22218	16.552
4.21874	16.5389
4.21531	16.5839
4.21189	16.5961
4.20847	16.5522
4.20506	16.5785
4.20165	16.6884
4.19825	16.7439
4.19485	16.721
4.19146	16.732
4.18807	16.8239
4.18469	16.9426
4.18132	16.9879
4.17795	16.9449
4.17458	16.9499
4.17123	16.9775
4.16787	17.0166
4.16453	17.1027
4.16118	17.1059
4.15785	16.997
4.15451	16.968
4.15119	16.9826
4.14787	16.9366
4.14455	16.917
4.14124	17.0135
4.13794	17.0465
4.13464	16.9452
4.13134	16.9336
4.12805	17.0402
4.12477	17.0435
4.12149	16.9294
4.11822	16.8803
4.11495	16.9652
4.11168	17.0053
4.10843	16.9785
4.10517	16.9946
4.10192	16.9957
4.09868	16.994
4.09545	16.926
4.09221	16.8564
4.08899	16.9624
4.08576	16.95
4.08255	16.8078
4.07933	16.7577
4.07613	16.704
4.07292	16.6468
4.06973	16.533
4.06654	16.2863
4.06335	16.1781
4.06017	16.1186
4.05699	15.9103
4.05382	15.6111
4.05065	15.4232
4.04749	15.2759
4.04433	15.0759
4.04118	14.7034
4.03803	14.3913
4.03489	14.1478
4.03175	13.8011
4.02862	13.4277
4.02549	13.0137
4.02237	12.4658
4.01925	11.9621
4.01614	11.4329
4.01303	10.8288
4.00993	10.223
4.00683	9.60146
4.00373	8.95435
4.00064	8.27961
3.99756	7.7513
3.99448	7.31087
3.9914	6.6612
3.98833	6.12045
3.98527	5.72588
3.98221	5.26796
3.97915	4.85099
3.9761	4.37841
3.97305	3.97494
3.97001	3.55259
3.96697	3.17092
3.96394	2.95332
3.96091	2.74507
3.95789	2.60729
3.95487	2.59196
3.95186	2.59091
3.94885	2.52353
3.94584	2.43416
3.94284	2.44262
3.93984	2.51748
3.93685	2.44965
3.93386	2.4279
3.93088	2.45292
3.9279	2.45523
3.92493	2.47834
3.92196	2.54553
3.919	2.55167
3.91604	2.62279
3.91308	2.6888
3.91013	2.75988
3.90718	2.80186
3.90424	2.77266
3.9013	2.84346
3.89837	2.96573
3.89544	3.00101
3.89252	3.1283
3.8896	3.21281
3.88668	3.37224
3.88377	3.47107
3.88086	3.51656
3.87796	3.80927
3.87506	4.02759
3.87217	4.09324
3.86928	4.11807
3.86639	4.26018
3.86351	4.37783
3.86064	4.2882
3.85776	4.29995
3.8549	4.38533
3.85203	4.44399
3.84917	4.50713
3.84631	4.50674
3.84346	4.47573
3.84062	4.4675
3.83777	4.55348
3.83494	4.61203
3.8321	4.57777
3.82927	4.7508
3.82644	4.93679
3.82362	4.84485
3.82081	4.78991
3.81799	4.87561
3.81518	4.90504
3.81238	4.92942
3.80958	5.04476
3.80678	5.08771
3.80399	5.06163
3.8012	5.10862
3.79841	5.08283
3.79563	5.07803
3.79286	5.17687
3.79008	5.33016
3.78731	5.3883
3.78455	5.44968
3.78179	5.56052
3.77903	5.659
3.77628	5.86125
3.77353	6.05514
3.77079	6.16608
3.76805	6.34245
3.76531	6.62494
3.76258	6.93184
3.75985	7.2518
3.75713	7.49382
3.7544	7.7844
3.75169	7.98636
3.74898	8.15593
3.74627	8.4691
3.74356	8.89037
3.74086	9.32585
3.73816	9.7592
3.73547	10.1275
3.73278	10.5443
3.7301	11.023
3.72741	11.5269
3.72474	12.0477
3.72206	12.5769
3.71939	13.1011
3.71673	13.5201
3.71406	13.8136
3.71141	14.1013
3.70875	14.3955
3.7061	14.6563
3.70345	14.7987
3.70081	14.8953
3.69817	14.9615
3.69553	14.9884
3.6929	15.0493
3.69027	14.9946
3.68765	14.9534
3.68503	14.9561
3.68241	14.9796
3.6798	15.0143
3.67719	14.9472
3.67458	14.8566
3.67198	14.8517
3.66938	14.8264
3.66678	14.7392
3.66419	14.6809
3.66161	14.6341
3.65902	14.6053
3.65644	14.6092
3.65387	14.5668
3.65129	14.5074
3.64872	14.4759
3.64616	14.4132
3.64359	14.3644
3.64103	14.2954
3.63848	14.2172
3.63593	14.0693
3.63338	13.8844
3.63084	13.8265
3.6283	13.798
3.62576	13.6955
3.62322	13.5488
3.62069	13.5322
3.61817	13.5618
3.61564	13.4746
3.61312	13.3485
3.61061	13.2785
3.6081	13.2227
3.60559	13.1565
3.60308	13.1171
3.60058	13.0405
3.59808	12.9822
3.59558	12.9184
3.59309	12.8333
3.59061	12.688
3.58812	12.5749
3.58564	12.5451
3.58316	12.5265
3.58069	12.4031
3.57822	12.291
3.57575	12.267
3.57328	12.1699
3.57082	12.0516
3.56836	12.0039
3.56591	11.898
3.56346	11.7521
3.56101	11.659
3.55857	11.5701
3.55613	11.4964
3.55369	11.4035
3.55126	11.2844
3.54883	11.1543
3.5464	10.9963
3.54397	10.9123
3.54155	10.8842
3.53914	10.7451
3.53672	10.5277
3.53431	10.2723
3.5319	10.008
3.5295	9.81868
3.5271	9.65985
3.5247	9.64672
3.52231	9.70068
3.51991	9.64854
3.51753	9.5632
3.51514	9.52357
3.51276	9.40517
3.51038	9.24902
3.50801	9.04499
3.50563	8.82121
3.50327	8.63689
3.5009	8.32693
3.49854	8.04997
3.49618	7.71023
3.49382	7.43641
3.49147	7.06464
3.48912	6.68488
3.48677	6.36253
3.48443	6.10704
3.48209	5.8731
3.47975	5.6672
3.47742	5.42106
3.47509	5.20103
3.47276	5.03108
3.47044	4.9919
3.46812	4.99996
3.4658	4.99903
3.46348	4.84226
3.46117	4.63172
3.45886	4.57488
3.45656	4.55692
3.45425	4.43438
3.45195	4.39537
3.44966	4.20119
3.44736	4.03054
3.44507	4.03954
3.44279	3.97571
3.4405	3.85469
3.43822	3.85229
3.43594	3.85404
3.43367	3.75794
3.43139	3.65742
3.42912	3.60192
3.42686	3.61482
3.42459	3.60038
3.42233	3.53454
3.42007	3.52878
3.41782	3.63956
3.41557	3.77578
3.41332	3.70703
3.41108	3.56731
3.40883	3.71701
3.40659	3.98575
3.40435	4.02007
3.40212	3.95627
3.39989	4.00873
3.39766	4.08869
3.39544	4.22726
3.39322	4.24589
3.391	4.36658
3.38878	4.40175
3.38657	4.30006
3.38436	4.15919
3.38215	4.21028
3.37994	4.29154
3.37774	4.24719
3.37554	4.29585
3.37335	4.35478
3.37115	4.39939
3.36896	4.41458
3.36678	4.32911
3.36459	4.19962
3.36241	4.19432
3.36023	4.26956
3.35805	4.28979
3.35588	4.29935
3.35371	4.17428
3.35154	4.00117
3.34938	3.97295
3.34721	4.07665
3.34505	4.20798
3.3429	4.1432
3.34074	4.04341
3.33859	4.04759
3.33644	4.05149
3.3343	4.0127
3.33215	4.03381
3.33001	3.96635
3.32788	3.8338
3.32574	3.83854
3.32361	3.91823
3.32148	3.83208
3.31936	3.7409
3.31723	3.74916
3.31511	3.79407
3.31299	3.69316
3.31088	3.57121
3.30876	3.56032
3.30665	3.62019
3.30455	3.60828
3.30244	3.70158
3.30034	3.71782
3.29824	3.60404
3.29614	3.54434
3.29405	3.52508
3.29196	3.48631
3.28987	3.44327
3.28778	3.46145
3.2857	3.39182
3.28362	3.31474
3.28154	3.34492
3.27946	3.36918
3.27739	3.29256
3.27532	3.19416
3.27325	3.18654
3.27119	3.21236
3.26913	3.20831
3.26707	3.27495
3.26501	3.24552
3.26295	3.2745
3.2609	3.40354
3.25885	3.41521
3.2568	3.45046
3.25476	3.49558
3.25272	3.59109
3.25068	3.62259
3.24864	3.69669
3.24661	3.79578
3.24458	3.7069
3.24255	3.52914
3.24052	3.47141
3.2385	3.44738
3.23648	3.52087
3.23446	3.53158
3.23244	3.46709
3.23043	3.40849
3.22841	3.36982
3.2264	3.38231
3.2244	3.33637
3.22239	3.35842
3.22039	3.36908
3.21839	3.38695
3.2164	3.30581
3.2144	3.22139
3.21241	3.27341
3.21042	3.3282
3.20844	3.23516
3.20645	3.23642
3.20447	3.29267
3.20249	3.23314
3.20051	3.26111
3.19854	3.23734
3.19657	3.25293
3.1946	3.2768
3.19263	3.18536
3.19067	3.18399
3.1887	3.2494
3.18674	3.23429
3.18479	3.17867
3.18283	3.16939
3.18088	3.14293
3.17893	3.12949
3.17698	3.29341
3.17504	3.37262
3.17309	3.31369
3.17115	3.20521
3.16921	3.25381
3.16728	3.25949
3.16534	3.20479
3.16341	3.13594
3.16148	3.15343
3.15956	3.20573
3.15763	3.15293
3.15571	3.09478
3.15379	3.15297
3.15187	3.1739
3.14996	3.00586
3.14805	2.9266
3.14614	3.09049
3.14423	3.14806
3.14232	3.07836
3.14042	3.09311
3.13852	3.16118
3.13662	3.19711
3.13472	3.10926
3.13283	3.02136
3.13094	3.06889
3.12905	3.09084
3.12716	3.11149
3.12528	2.99769
3.12339	2.96108
3.12151	3.12753
3.11964	3.22004
3.11776	3.16538
3.11589	2.99113
3.11401	2.97727
3.11214	3.0524
3.11028	2.99918
3.10841	2.99969
3.10655	3.0613
3.10469	3.02873
3.10283	2.98879
3.10098	2.97318
3.09912	3.07366
3.09727	3.12763
3.09542	3.15761
3.09358	3.11732
3.09173	3.04011
3.08989	3.05296
3.08805	2.99938
3.08621	3.01246
3.08437	3.12936
3.08254	3.18346
3.08071	3.18434
3.07888	3.0911
3.07705	3.08548
3.07523	3.17237
3.0734	3.1679
3.07158	3.13486
3.06977	3.12368
3.06795	3.13522
3.06613	3.16918
3.06432	3.328
3.06251	3.32216
3.0607	3.1587
3.0589	3.14965
3.0571	3.14992
3.05529	3.19479
3.05349	3.15562
3.0517	3.12105
3.0499	3.15609
3.04811	3.19399
3.04632	3.21395
3.04453	3.25818
3.04274	3.23638
3.04096	3.2249
3.03918	3.22673
3.0374	3.19253
3.03562	3.09631
3.03384	3.04189
3.03207	3.10605
3.03029	3.0338
3.02852	3.01839
3.02676	3.08918
3.02499	3.11578
3.02323	3.09661
3.02146	3.03708
3.0197	3.07478
3.01795	3.08246
3.01619	3.01248
3.01444	2.97993
3.01269	3.00883
3.01094	2.8763
3.00919	2.78359
3.00744	2.87257
3.0057	2.9463
3.00396	2.88018
3.00222	2.87685
3.00048	2.92615
2.99875	2.91019
2.99701	2.88968
2.99528	2.87347
2.99355	2.85957
2.99183	2.86614
2.9901	2.76842
2.98838	2.63604
2.98666	2.72016
2.98494	2.78133
2.98322	2.91634
2.9815	2.91937
2.97979	2.75382
2.97808	2.58643
2.97637	2.61388
2.97466	2.80715
2.97295	2.84233
2.97125	2.87322
2.96955	2.94878
2.96785	2.99974
2.96615	3.00238
2.96446	2.94898
2.96276	2.9912
2.96107	3.01065
2.95938	2.93287
2.95769	2.92931
2.95601	2.9062
2.95432	3.01597
2.95264	3.20742
2.95096	3.11186
2.94928	3.06817
2.9476	3.15194
2.94593	3.24304
2.94425	3.26513
2.94258	3.28332
2.94092	3.16094
2.93925	3.16763
2.93758	3.34555
2.93592	3.31127
2.93426	3.34105
2.9326	3.47979
2.93094	3.45424
2.92928	3.45977
2.92763	3.51677
2.92598	3.49105
2.92433	3.53872
2.92268	3.57836
2.92103	3.47091
2.91939	3.43266
2.91775	3.75965
2.9161	3.69577
2.91447	3.59376
2.91283	3.69245
2.91119	3.88663
2.90956	3.93807
2.90793	3.9079
2.9063	3.96238
2.90467	4.13079
2.90304	4.25141
2.90142	4.23099
2.89979	4.08168
2.89817	4.2363
2.89656	4.39429
2.89494	4.27482
2.89332	4.26043
2.89171	4.35208
2.8901	4.47141
2.88849	4.65822
2.88688	4.75947
2.88527	4.75307
2.88367	4.64765
2.88206	4.63787
2.88046	4.71284
2.87886	4.68733
2.87727	4.74118
2.87567	4.90528
2.87408	5.02529
2.87248	5.11226
2.87089	5.17002
2.8693	5.11359
2.86772	5.12843
2.86613	5.21303
2.86455	5.38576
2.86297	5.31044
2.86139	5.21529
2.85981	5.29083
2.85823	5.39686
2.85666	5.46268
2.85508	5.51507
2.85351	5.55677
2.85194	5.70294
2.85038	5.93474
2.84881	6.00338
2.84724	6.08024
2.84568	6.20325
2.84412	6.04955
2.84256	5.94853
2.841	5.97985
2.83945	6.09149
2.83789	6.22325
2.83634	6.13942
2.83479	6.00249
2.83324	6.09596
2.83169	6.30022
2.83015	6.37258
2.82861	6.33201
2.82706	6.30909
2.82552	6.38851
2.82398	6.41598
2.82245	6.4921
2.82091	6.52406
2.81938	6.39941
2.81784	6.4129
2.81631	6.36968
2.81479	6.37617
2.81326	6.32247
2.81173	6.36643
2.81021	6.52296
2.80869	6.62503
2.80716	6.73864
2.80565	6.82365
2.80413	6.8369
2.80261	7.00104
2.8011	7.10328
2.79959	7.16508
2.79808	7.29918
2.79657	7.54595
2.79506	7.67359
2.79355	7.6659
2.79205	7.73747
2.79055	7.88289
2.78904	8.00822
2.78754	8.188
2.78605	8.23855
2.78455	8.33544
2.78306	8.40958
2.78156	8.60119
2.78007	8.74959
2.77858	8.67463
2.77709	8.83825
2.77561	9.07733
2.77412	9.14807
2.77264	9.15712
2.77116	9.30141
2.76968	9.42309
2.7682	9.45054
2.76672	9.7949
2.76524	9.9084
2.76377	9.93094
2.7623	10.1106
2.76083	10.2008
2.75936	10.3211
2.75789	10.531
2.75642	10.7308
2.75496	10.8702
2.7535	11.0908
2.75203	11.5314
2.75057	11.8401
2.74912	11.9855
2.74766	12.3187
2.7462	12.7167
2.74475	13.1058
2.7433	13.4746
2.74185	13.7738
2.7404	14.263
2.73895	14.9358
2.7375	15.4971
2.73606	15.9013
2.73462	16.3424
2.73318	16.867
2.73174	17.4604
2.7303	17.992
2.72886	18.4116
2.72742	18.8206
2.72599	18.9649
2.72456	18.9143
2.72313	18.9548
2.7217	18.5905
2.72027	18.1936
2.71884	18.1303
2.71742	18.0544
2.71599	17.9501
2.71457	17.8671
2.71315	18.0169
2.71173	18.6114
2.71032	19.798
2.7089	21.2325
2.70748	23.114
2.70607	25.0201
2.70466	26.5532
2.70325	27.8312
2.70184	28.7468
2.70043	29.6092
2.69903	30.3851
2.69762	31.2158
2.69622	31.948
2.69482	32.3767
2.69342	32.6033
2.69202	32.5393
2.69062	32.0672
2.68923	32.0543
2.68783	33.2712
2.68644	35.1486
2.68505	36.6245
2.68366	37.5253
2.68227	38.2887
2.68089	38.8139
2.6795	39.0285
2.67812	39.3475
2.67673	39.7157
2.67535	40.3582
2.67397	40.9307
2.6726	41.2294
2.67122	41.0862
2.66984	41.4302
2.66847	42.0743
2.6671	42.0534
2.66572	42.383
2.66435	43.1444
2.66299	43.8297
2.66162	43.9728
2.66025	44.1679
2.65889	44.5524
2.65753	44.9713
2.65616	45.1505
2.65481	45.3567
2.65345	45.6181
2.65209	45.8656
2.65073	46.3409
2.64938	46.6357
2.64803	46.8463
2.64667	46.939
2.64532	47.0215
2.64397	47.4657
2.64263	47.7216
2.64128	47.8662
2.63994	48.0079
2.63859	48.2827
2.63725	48.5445
2.63591	48.5935
2.63457	48.5062
2.63323	48.692
2.6319	48.785
2.63056	48.5467
2.62923	48.9394
2.62789	49.1776
2.62656	49.1286
2.62523	49.5195
2.6239	49.9071
2.62258	50.0922
2.62125	49.7763
2.61993	49.6486
2.6186	49.9844
2.61728	49.9669
2.61596	50.2558
2.61464	50.7584
2.61332	50.7715
2.61201	50.8627
2.61069	50.9061
2.60938	50.9045
2.60807	51.0064
2.60675	50.8644
2.60544	50.591
2.60414	50.9499
2.60283	51.2677
2.60152	51.3861
2.60022	51.669
2.59891	51.8891
2.59761	51.9278
2.59631	51.4259
2.59501	50.7033
2.59371	51.3115
2.59242	52.0854
2.59112	52.2694
2.58983	52.2403
2.58853	52.1636
2.58724	52.1332
2.58595	52.308
2.58466	52.1446
2.58338	52.0895
2.58209	52.3706
2.5808	52.4123
2.57952	52.7466
2.57824	52.7271
2.57695	52.5759
2.57567	52.6571
2.5744	52.5495
2.57312	52.478
2.57184	52.7842
2.57057	52.7116
2.56929	52.6318
2.56802	52.8131
2.56675	52.8132
2.56548	52.5932
2.56421	52.3926
2.56294	52.2694
2.56168	52.2357
2.56041	52.3288
2.55915	52.4972
2.55789	52.4586
2.55662	52.4474
2.55536	52.4356
2.5541	52.2806
2.55285	52.1866
2.55159	52.3089
2.55034	52.3212
2.54908	52.2218
2.54783	52.0142
2.54658	51.8897
2.54533	51.7153
2.54408	51.5229
2.54283	51.4515
2.54159	51.3853
2.54034	51.1866
2.5391	50.8658
2.53785	50.6406
2.53661	50.446
2.53537	50.0888
2.53413	49.6938
2.53289	49.153
2.53166	48.7862
2.53042	48.3182
2.52919	47.9184
2.52795	47.3868
2.52672	46.894
2.52549	46.3796
2.52426	45.8625
2.52303	45.4502
2.52181	45.1795
2.52058	44.8352
2.51936	44.472
2.51813	44.1825
2.51691	43.9292
2.51569	43.6421
2.51447	43.3333
2.51325	43.1744
2.51203	42.9822
2.51082	42.8137
2.5096	42.7488
2.50839	42.5031
2.50717	42.2762
2.50596	42.2782
2.50475	42.2021
2.50354	42.0527
2.50233	42.1149
2.50113	42.1849
2.49992	42.3074
2.49872	42.3546
2.49751	42.3291
2.49631	42.4015
2.49511	42.3923
2.49391	42.4863
2.49271	42.6086
2.49151	42.714
2.49031	42.7698
2.48912	42.8386
2.48792	43.023
2.48673	43.1533
2.48554	43.2139
2.48435	43.5179
2.48316	43.7611
2.48197	43.7809
2.48078	43.8237
2.4796	43.8945
2.47841	44.077
2.47723	44.2465
2.47604	44.32
2.47486	44.4386
2.47368	44.4997
2.4725	44.4617
2.47132	44.6313
2.47014	44.8045
2.46897	44.9668
2.46779	45.0276
2.46662	45.0931
2.46545	45.266
2.46427	45.4682
2.4631	45.4456
2.46193	45.5722
2.46077	45.7759
2.4596	45.8548
2.45843	45.9558
2.45727	46.0931
2.4561	46.2292
2.45494	46.4743
2.45378	46.7498
2.45262	46.878
2.45146	46.9716
2.4503	47.0255
2.44914	47.2702
2.44799	47.6816
2.44683	47.8808
2.44568	48.0299
2.44452	48.2427
2.44337	48.4111
2.44222	48.5692
2.44107	48.9488
2.43992	49.2441
2.43877	49.4147
2.43763	49.6187
2.43648	49.8128
2.43534	49.942
2.43419	50.1687
2.43305	50.6092
2.43191	50.9596
2.43077	51.0807
2.42963	51.4032
2.42849	51.736
2.42736	51.9454
2.42622	52.1946
2.42509	52.4999
2.42395	52.7174
2.42282	52.9361
2.42169	53.1468
2.42056	53.3848
2.41943	53.495
2.4183	53.6945
2.41717	53.94
2.41605	54.1007
2.41492	54.3001
2.4138	54.4773
2.41267	54.8292
2.41155	54.9964
2.41043	55.1401
2.40931	55.4654
2.40819	55.6415
2.40707	55.5698
2.40595	55.6694
2.40484	56.0312
2.40372	56.1389
2.40261	56.2684
2.4015	56.4738
2.40039	56.6344
2.39928	56.6938
2.39817	56.8704
2.39706	57.0381
2.39595	57.0267
2.39484	57.0478
2.39374	57.0852
2.39263	57.1833
2.39153	57.3054
2.39043	57.5156
2.38932	57.727
2.38822	57.874
2.38712	58.0514
2.38603	58.3145
2.38493	58.525
2.38383	58.6958
2.38274	58.9178
2.38164	59.0895
2.38055	59.3387
2.37946	59.5743
2.37836	59.7897
2.37727	60.0298
2.37618	60.3385
2.3751	60.7433
2.37401	60.8299
2.37292	60.75
2.37184	60.8628
2.37075	61.1056
2.36967	61.3881
2.36859	61.4194
2.3675	61.489
2.36642	61.7345
2.36534	61.8953
2.36427	61.9941
2.36319	62.1263
2.36211	62.4026
2.36104	62.6266
2.35996	62.6832
2.35889	62.8754
2.35781	63.0937
2.35674	63.1735
2.35567	63.241
2.3546	63.3921
2.35353	63.4223
2.35247	63.5527
2.3514	63.8722
2.35033	64.0931
2.34927	64.1624
2.3482	64.169
2.34714	64.1088
2.34608	64.1636
2.34502	64.2313
2.34396	64.363
2.3429	64.4201
2.34184	64.4048
2.34078	64.2515
2.33973	63.9661
2.33867	63.8352
2.33762	63.8473
2.33656	63.7615
2.33551	63.6625
2.33446	63.4805
2.33341	63.1735
2.33236	62.8451
2.33131	62.6298
2.33026	62.4226
2.32922	62.0851
2.32817	61.6915
2.32712	61.4102
2.32608	60.9663
2.32504	60.6709
2.324	60.4078
2.32295	59.9833
2.32191	59.6946
2.32087	59.6355
2.31984	59.2825
2.3188	58.6895
2.31776	58.2426
2.31673	57.9524
2.31569	57.5373
2.31466	57.2127
2.31362	57.0744
2.31259	56.9326
2.31156	56.8279
2.31053	56.8373
2.3095	56.9136
2.30847	57.0128
2.30745	57.1587
2.30642	57.2524
2.3054	57.4241
2.30437	57.6313
2.30335	57.619
2.30232	57.6515
2.3013	57.8257
2.30028	58.0075
2.29926	57.996
2.29824	58.0333
2.29722	58.175
2.29621	58.3119
2.29519	58.3578
2.29417	58.3146
2.29316	58.311
2.29215	58.583
2.29113	58.9345
2.29012	59.0703
2.28911	59.0345
2.2881	59.1145
2.28709	59.2804
2.28608	59.3793
2.28507	59.57
2.28407	59.7781
2.28306	60.0249
2.28206	60.3238
2.28105	60.5461
2.28005	60.5832
2.27905	60.625
2.27805	60.781
2.27705	60.9196
2.27605	60.9572
2.27505	60.9687
2.27405	61.0184
2.27305	61.1802
2.27206	61.3137
2.27106	61.4752
2.27007	61.6202
2.26907	61.5701
2.26808	61.5474
2.26709	61.6671
2.2661	61.8228
2.26511	61.9845
2.26412	62.1057
2.26313	62.217
2.26214	62.428
2.26116	62.6737
2.26017	62.8185
2.25919	62.7957
2.2582	62.8669
2.25722	62.9756
2.25624	63.0015
2.25526	63.1406
2.25428	63.2572
2.2533	63.3616
2.25232	63.6084
2.25134	63.8403
2.25036	64.0896
2.24939	64.1887
2.24841	64.4289
2.24744	64.7622
2.24646	64.9434
2.24549	64.9681
2.24452	64.9647
2.24355	65.1182
2.24257	65.3679
2.24161	65.7808
2.24064	65.92
2.23967	65.9378
2.2387	66.3235
2.23774	66.692
2.23677	66.7966
2.23581	67.0187
2.23484	67.329
2.23388	67.4408
2.23292	67.5102
2.23196	67.6639
2.231	67.8385
2.23004	68.0429
2.22908	68.0783
2.22812	68.1794
2.22716	68.4074
2.22621	68.6977
2.22525	69.0065
2.2243	69.0253
2.22334	68.9787
2.22239	69.1625
2.22144	69.3191
2.22049	69.2423
2.21953	69.2764
2.21859	69.3844
2.21764	69.4811
2.21669	69.576
2.21574	69.633
2.21479	69.7998
2.21385	69.9418
2.2129	69.9832
2.21196	70.0093
2.21102	70.1526
2.21007	70.2684
2.20913	70.3069
2.20819	70.4593
2.20725	70.4795
2.20631	70.4882
2.20537	70.4621
2.20444	70.4205
2.2035	70.5184
2.20256	70.6138
2.20163	70.6852
2.20069	70.7076
2.19976	70.6308
2.19883	70.6268
2.19789	70.6741
2.19696	70.7057
2.19603	70.6886
2.1951	70.8834
2.19417	70.8706
2.19325	70.8347
2.19232	70.8125
2.19139	70.8432
2.19047	70.9113
2.18954	70.8164
2.18862	70.8324
2.18769	70.6329
2.18677	70.4898
2.18585	70.6347
2.18493	70.7291
2.18401	70.7416
2.18309	70.7493
2.18217	70.7205
2.18125	70.7986
2.18033	70.9336
2.17942	70.9076
2.1785	70.9444
2.17759	71.0045
2.17667	71.0068
2.17576	70.9933
2.17485	70.9079
2.17393	70.8139
2.17302	70.763
2.17211	70.7585
2.1712	70.638
2.17029	70.6476
2.16939	70.8313
2.16848	70.8904
2.16757	70.8447
2.16667	70.7648
2.16576	70.6546
2.16486	70.6312
2.16395	70.6855
2.16305	70.6692
2.16215	70.6249
2.16125	70.5521
2.16035	70.284
2.15945	70.1526
2.15855	70.3451
2.15765	70.4183
2.15675	70.2525
2.15586	70.1723
2.15496	70.0299
2.15406	69.855
2.15317	69.8068
2.15228	69.7219
2.15138	69.6488
2.15049	69.6619
2.1496	69.7418
2.14871	69.6433
2.14782	69.4417
2.14693	69.2834
2.14604	69.3469
2.14515	69.4348
2.14427	69.4744
2.14338	69.2489
2.14249	69.0902
2.14161	68.9084
2.14072	68.8481
2.13984	68.654
2.13896	68.4868
2.13808	68.5603
2.13719	68.6953
2.13631	68.6973
2.13543	68.6715
2.13455	68.5811
2.13368	68.389
2.1328	68.3027
2.13192	68.3471
2.13105	68.3079
2.13017	68.1788
2.1293	68.1012
2.12842	68.1274
2.12755	68.1281
2.12668	68.1596
2.1258	68.127
2.12493	68.0817
2.12406	67.8888
2.12319	67.7257
2.12232	67.7854
2.12145	67.7764
2.12059	67.7417
2.11972	67.6837
2.11885	67.6529
2.11799	67.7478
2.11712	67.6807
2.11626	67.6853
2.1154	67.5894
2.11453	67.2343
2.11367	67.0844
2.11281	67.1999
2.11195	67.2094
2.11109	67.2182
2.11023	67.1801
2.10937	67.1594
2.10851	67.0987
2.10766	67.0218
2.1068	67.0274
2.10594	67.0499
2.10509	66.9846
2.10423	66.8052
2.10338	66.7058
2.10253	66.689
2.10168	66.7608
2.10082	66.8663
2.09997	66.8482
2.09912	66.5664
2.09827	66.4372
2.09742	66.4903
2.09658	66.44
2.09573	66.4248
2.09488	66.3088
2.09404	66.3082
2.09319	66.3275
2.09235	66.2683
2.0915	66.2989
2.09066	66.209
2.08982	66.1835
2.08897	66.1833
2.08813	66.0248
2.08729	66.0943
2.08645	66.0424
2.08561	65.893
2.08477	65.9795
2.08394	65.8257
2.0831	65.566
2.08226	65.7939
2.08143	66.08
2.08059	65.8283
2.07976	65.4851
2.07892	65.503
2.07809	65.7297
2.07726	65.5437
2.07643	65.413
2.07559	65.6498
2.07476	65.7142
2.07393	65.4228
2.0731	65.2895
2.07228	65.5924
2.07145	65.3931
2.07062	65.0377
2.06979	65.2966
2.06897	65.2163
2.06814	64.9705
2.06732	64.9824
2.06649	65.1694
2.06567	65.2577
2.06485	65.0111
2.06403	64.9256
2.0632	64.997
2.06238	65.0709
2.06156	65.1893
2.06074	65.2387
2.05993	65.1497
2.05911	65.0421
2.05829	64.712
2.05747	64.5573
2.05666	64.7579
2.05584	64.9261
2.05503	65.0987
2.05421	64.826
2.0534	64.5821
2.05259	64.8432
2.05177	65.063
2.05096	64.8028
2.05015	64.5687
2.04934	64.7221
2.04853	64.9415
2.04772	64.6693
2.04691	64.1605
2.04611	64.1176
2.0453	64.4682
2.04449	64.4793
2.04369	64.3544
2.04288	64.5327
2.04208	64.6325
2.04127	64.4312
2.04047	64.4314
2.03967	64.6021
2.03886	64.5284
2.03806	64.4217
2.03726	64.5114
2.03646	64.614
2.03566	64.6694
2.03486	64.66
2.03407	64.5527
2.03327	64.5295
2.03247	64.3748
2.03167	64.2798
2.03088	64.1195
2.03008	64.1653
2.02929	64.473
2.0285	64.5892
2.0277	64.4089
2.02691	64.4534
2.02612	64.3593
2.02533	64.6223
2.02453	64.7052
2.02374	64.5887
2.02295	64.576
2.02217	64.4739
2.02138	64.2915
2.02059	64.3711
2.0198	64.4561
2.01902	64.3765
2.01823	64.4033
2.01744	64.4059
2.01666	64.3458
2.01588	64.1969
2.01509	64.1972
2.01431	64.3237
2.01353	64.4094
2.01275	63.9991
2.01196	63.9953
2.01118	64.2661
2.0104	64.1558
2.00963	64.4137
2.00885	64.5968
2.00807	64.6006
2.00729	64.7455
2.00651	64.6621
2.00574	64.6879
2.00496	64.3024
2.00419	64.1461
2.00341	64.4065
2.00264	64.611
2.00187	64.5745
2.00109	64.4359
2.00032	64.2992
