Name: Limestone Conglomerate-Breccia
Type: Rock
Class: Sedimentary
Subclass:  Conglomerate 
Particle Size: Solid surface
Sample No.: Ward50.txt
Owner: JPL
Wavelength range:  IR 
Origin: Ward's Collection of American Rocks.  Sample locality - Loudoun County, Virginia.
Collected by:  Ward's Natural Science
Description: This is a reddish brown conglomerate-breccia composed o
angular to rounded fragments of limestone of various shades of gray and
buff with a chocolate colored calcareous cement.  The degree of roundness
of the pebbles varies witht he specimen.
Geologic age - Triassic (Newark).

Measurement: Hemispherical reflectance
First Column: X
Second Column: Y
X Units: Wavelength (micrometers)
Y Units: Reflectance (percent)
First X Value: 15.3871
Last X Value: 1.9998
Number of X Values: 2257
Additional information: None

15.3871   3.27684
15.3416   3.02468
15.2964   3.28655
15.2514   3.78066
15.2066   3.93104
15.1622   4.08460
15.1180   4.21800
15.0740   3.93245
15.0303   3.70008
14.9869   3.74904
14.9437   3.94094
14.9008   4.10216
14.8581   4.00660
14.8156   4.08401
14.7734   4.31060
14.7314   4.43429
14.6897   4.40984
14.6482   4.49544
14.6069   4.42064
14.5659   4.24529
14.5251   4.46765
14.4845   4.61293
14.4442   4.49946
14.4041   4.38217
14.3642   4.26458
14.3245   4.35996
14.2850   4.21192
14.2458   4.05154
14.2068   4.36807
14.1679   4.39472
14.1293   4.31593
14.0909   4.64196
14.0528   4.83032
14.0148   4.40021
13.9770   3.76352
13.9394   3.52883
13.9021   3.52562
13.8649   3.75617
13.8279   3.91074
13.7911   4.05440
13.7546   4.32903
13.7182   4.41326
13.6820   3.89990
13.6460   3.25649
13.6101   3.22486
13.5745   3.41682
13.5391   3.67265
13.5038   3.83228
13.4687   3.76594
13.4339   3.87579
13.3991   4.11403
13.3646   4.35576
13.3302   4.35242
13.2961   4.41800
13.2621   4.50912
13.2282   4.53858
13.1946   4.56588
13.1611   4.56660
13.1278   4.64169
13.0946   4.89426
13.0616   4.98301
13.0288   4.89521
12.9962   4.80063
12.9637   4.96805
12.9313   5.24153
12.8992   5.30112
12.8672   5.19519
12.8353   5.24386
12.8036   5.42958
12.7721   5.35632
12.7407   5.11175
12.7095   5.26006
12.6784   5.43245
12.6475   5.34232
12.6167   5.29426
12.5861   5.30102
12.5556   5.44572
12.5253   5.57734
12.4951   5.71552
12.4651   5.79079
12.4352   5.63338
12.4054   5.35320
12.3758   4.99836
12.3463   4.88852
12.3170   4.88914
12.2878   4.76529
12.2588   4.70913
12.2299   4.75503
12.2011   4.78291
12.1725   4.90294
12.1439   5.00829
12.1156   5.21035
12.0873   5.29464
12.0592   5.27660
12.0312   5.24281
12.0034   5.29138
11.9757   5.29033
11.9481   5.41393
11.9206   5.53940
11.8933   5.54836
11.8661   5.59067
11.8390   5.53479
11.8120   5.30548
11.7852   5.30957
11.7584   5.56074
11.7318   5.78814
11.7053   5.80855
11.6790   5.92140
11.6527   6.05816
11.6266   6.22227
11.6006   6.24705
11.5747   6.49532
11.5489   6.99516
11.5233   7.51875
11.4977   8.23098
11.4723   9.31220
11.4469  10.40470
11.4217  11.51650
11.3966  12.92590
11.3716  14.31850
11.3468  15.41410
11.3220  16.32240
11.2973  17.24260
11.2728  17.49220
11.2483  16.63080
11.2240  15.49950
11.1997  14.81830
11.1756  14.37450
11.1515  13.73930
11.1276  12.16960
11.1038   9.98044
11.0801   8.54350
11.0564   7.82643
11.0329   7.39716
11.0095   7.21504
10.9862   6.90313
10.9629   6.70703
10.9398   6.61085
10.9168   6.58004
10.8938   6.63511
10.8710   6.51960
10.8483   6.37088
10.8256   6.28744
10.8031   6.18464
10.7806   6.11097
10.7582   6.14763
10.7360   6.13441
10.7138   6.13261
10.6917   6.18303
10.6697   6.24646
10.6478   6.24594
10.6260   6.18037
10.6042   6.22454
10.5826   6.21053
10.5610   6.16600
10.5396   6.28707
10.5182   6.35945
10.4969   6.44606
10.4757   6.58735
10.4546   6.63031
10.4335   6.69319
10.4126   6.79248
10.3917   6.82353
10.3709   6.85522
10.3502   6.85223
10.3296   6.72721
10.3091   6.73208
10.2886   6.82561
10.2683   6.87522
10.2480   6.91850
10.2277   6.98224
10.2076   7.01685
10.1876   7.11431
10.1676   7.14762
10.1477   7.15174
10.1279   7.32556
10.1081   7.42636
10.0885   7.45000
10.0689   7.49118
10.0494   7.49996
10.0299   7.46903
10.0106   7.47602
 9.9913   7.51761
 9.9720   7.58788
 9.9529   7.63633
 9.9338   7.60601
 9.9148   7.64200
 9.8959   7.79479
 9.8771   7.85559
 9.8583   7.84741
 9.8396   7.87503
 9.8210   7.84993
 9.8024   7.90406
 9.7839   8.04065
 9.7655   8.24426
 9.7471   8.33264
 9.7288   8.35792
 9.7106   8.39055
 9.6925   8.57540
 9.6744   8.81788
 9.6564   8.88389
 9.6384   8.65447
 9.6205   8.65398
 9.6027   8.82005
 9.5850   8.97713
 9.5673   8.98803
 9.5497   8.99662
 9.5321   9.08977
 9.5146   9.09547
 9.4972   9.29075
 9.4798   9.44815
 9.4625   9.45746
 9.4453   9.59425
 9.4281   9.74833
 9.4110   9.68579
 9.3940   9.90396
 9.3770  10.31830
 9.3600  10.50590
 9.3432  10.54680
 9.3264  10.79530
 9.3096  11.00900
 9.2930  11.29560
 9.2763  11.34210
 9.2598  11.16220
 9.2432  11.07970
 9.2268  11.17300
 9.2104  11.28930
 9.1941  11.09680
 9.1778  11.11690
 9.1616  11.39450
 9.1454  11.47330
 9.1293  11.28000
 9.1133  11.17050
 9.0973  11.12800
 9.0814  10.97910
 9.0655  10.99720
 9.0497  11.03990
 9.0339  11.09830
 9.0182  11.20490
 9.0025  11.35070
 8.9870  11.35810
 8.9714  11.33440
 8.9559  11.38060
 8.9405  11.42890
 8.9251  11.30380
 8.9097  11.21370
 8.8945  11.26110
 8.8792  11.26440
 8.8641  11.28450
 8.8489  11.41010
 8.8338  11.58000
 8.8188  11.57700
 8.8039  11.48930
 8.7889  11.34100
 8.7741  11.26960
 8.7592  11.38280
 8.7445  11.30890
 8.7297  11.02440
 8.7151  10.85980
 8.7005  10.97470
 8.6859  10.81390
 8.6714  10.38340
 8.6569  10.15330
 8.6425   9.90725
 8.6281   9.70587
 8.6137   9.68554
 8.5994  10.00970
 8.5852  10.36460
 8.5710  10.55360
 8.5569  10.72950
 8.5428  10.76460
 8.5287  10.58190
 8.5147  10.67620
 8.5008  10.78090
 8.4869  10.69880
 8.4730  10.67050
 8.4592  10.60080
 8.4454  10.51130
 8.4316  10.55240
 8.4180  10.71960
 8.4043  10.82930
 8.3907  10.85380
 8.3772  10.87300
 8.3637  10.96190
 8.3502  11.05070
 8.3368  11.24390
 8.3234  11.38330
 8.3100  11.49950
 8.2967  11.67790
 8.2835  11.71920
 8.2703  11.69880
 8.2571  11.62240
 8.2440  11.68660
 8.2309  11.79570
 8.2179  11.70090
 8.2049  11.63040
 8.1919  11.63880
 8.1790  11.53230
 8.1661  11.24510
 8.1532  10.98490
 8.1404  10.71600
 8.1277  10.44340
 8.1150  10.35280
 8.1023  10.21910
 8.0897  10.00150
 8.0770   9.87666
 8.0645   9.74850
 8.0520   9.62368
 8.0395   9.58413
 8.0270   9.59263
 8.0146   9.64187
 8.0023   9.70846
 7.9899   9.67046
 7.9776   9.48899
 7.9654   9.36238
 7.9532   9.30594
 7.9410   9.30519
 7.9288   9.41444
 7.9167   9.26297
 7.9047   9.15374
 7.8926   9.16520
 7.8807   9.13740
 7.8687   9.14472
 7.8568   9.20943
 7.8449   9.13342
 7.8330   9.05727
 7.8212   8.99601
 7.8094   9.01198
 7.7977   9.06006
 7.7860   8.98800
 7.7743   8.94065
 7.7627   8.98577
 7.7511   8.98237
 7.7395   8.96727
 7.7280   8.90300
 7.7165   8.84556
 7.7050   8.86247
 7.6936   8.84718
 7.6822   8.95100
 7.6708   9.00233
 7.6595   8.93585
 7.6482   8.87585
 7.6369   8.89915
 7.6257   8.91365
 7.6145   8.90399
 7.6033   8.91720
 7.5922   8.88086
 7.5811   8.82090
 7.5700   8.82064
 7.5590   8.87519
 7.5480   8.93235
 7.5370   9.04688
 7.5261   9.01519
 7.5152   8.98890
 7.5043   9.14484
 7.4935   9.22248
 7.4826   9.21823
 7.4718   9.28724
 7.4611   9.39480
 7.4504   9.45660
 7.4397   9.45559
 7.4290   9.50731
 7.4184   9.63970
 7.4078   9.75959
 7.3972   9.75912
 7.3867   9.84229
 7.3762   9.86938
 7.3657   9.88402
 7.3553   9.93394
 7.3449  10.04930
 7.3345  10.23490
 7.3241  10.31350
 7.3138  10.47640
 7.3035  10.62110
 7.2932  10.80530
 7.2830  10.97010
 7.2727  11.07560
 7.2626  11.15280
 7.2524  11.26610
 7.2423  11.58090
 7.2322  11.92130
 7.2221  12.17680
 7.2120  12.47910
 7.2020  12.85550
 7.1921  13.32370
 7.1821  13.73740
 7.1722  14.21890
 7.1623  14.68200
 7.1524  15.06700
 7.1425  15.43520
 7.1327  15.89760
 7.1229  16.52180
 7.1131  17.36850
 7.1034  18.19140
 7.0937  18.82850
 7.0840  19.32040
 7.0743  19.72590
 7.0647  20.18650
 7.0551  20.90170
 7.0455  21.55550
 7.0359  22.08940
 7.0264  22.66490
 7.0169  22.96220
 7.0074  23.08180
 6.9979  23.11270
 6.9885  23.08050
 6.9791  23.17610
 6.9697  23.30790
 6.9604  23.39810
 6.9510  23.38550
 6.9417  23.40550
 6.9324  23.45340
 6.9232  23.53390
 6.9140  23.64660
 6.9047  23.87120
 6.8956  24.00860
 6.8864  24.19080
 6.8773  24.43360
 6.8682  24.86710
 6.8591  24.98120
 6.8500  24.90300
 6.8410  25.07490
 6.8320  25.37550
 6.8230  25.62360
 6.8140  25.74950
 6.8051  25.91090
 6.7962  26.33930
 6.7873  26.66900
 6.7784  26.68130
 6.7695  26.80870
 6.7607  27.06900
 6.7519  27.37900
 6.7431  27.67050
 6.7344  28.04580
 6.7256  28.55760
 6.7169  28.97990
 6.7082  29.26710
 6.6996  29.58340
 6.6909  30.07080
 6.6823  30.62920
 6.6737  30.94630
 6.6651  31.17010
 6.6566  31.53690
 6.6480  32.25280
 6.6395  33.21550
 6.6310  33.55110
 6.6226  33.69220
 6.6141  34.07160
 6.6057  34.50880
 6.5973  34.99510
 6.5889  35.49370
 6.5805  35.99650
 6.5722  36.44700
 6.5639  36.66590
 6.5556  36.92250
 6.5473  37.06380
 6.5390  37.22390
 6.5308  37.39980
 6.5226  37.69360
 6.5144  37.79460
 6.5062  38.03010
 6.4981  38.50840
 6.4900  38.52800
 6.4818  38.14640
 6.4737  37.78410
 6.4657  37.22610
 6.4576  36.57930
 6.4496  35.71660
 6.4416  34.60030
 6.4336  33.29350
 6.4256  32.05780
 6.4177  31.07310
 6.4097  29.67810
 6.4018  28.11140
 6.3939  26.92100
 6.3860  25.83640
 6.3782  24.75540
 6.3704  23.59740
 6.3625  22.09540
 6.3547  20.25410
 6.3470  18.27680
 6.3392  16.06190
 6.3315  14.04850
 6.3237  12.49370
 6.3160  11.20070
 6.3083  10.00820
 6.3007   8.95496
 6.2930   8.04417
 6.2854   7.40856
 6.2778   6.83705
 6.2702   6.26383
 6.2626   5.74603
 6.2551   5.40462
 6.2476   5.14169
 6.2400   4.72416
 6.2325   4.31687
 6.2251   4.10079
 6.2176   3.89501
 6.2101   3.64757
 6.2027   3.47294
 6.1953   3.36916
 6.1879   3.34375
 6.1805   3.16659
 6.1732   2.97578
 6.1658   2.89506
 6.1585   2.79773
 6.1512   2.70572
 6.1439   2.50282
 6.1367   2.50463
 6.1294   2.63186
 6.1222   2.63896
 6.1149   2.47002
 6.1077   2.24360
 6.1006   2.16320
 6.0934   2.17984
 6.0862   2.14405
 6.0791   2.11015
 6.0720   2.15539
 6.0649   2.18528
 6.0578   2.12252
 6.0507   2.13676
 6.0437   2.03485
 6.0366   1.87761
 6.0296   1.90004
 6.0226   1.99452
 6.0156   2.02597
 6.0087   2.04567
 6.0017   2.06468
 5.9948   2.14437
 5.9878   2.11596
 5.9809   2.03234
 5.9740   2.05855
 5.9672   2.14181
 5.9603   2.07926
 5.9535   2.02561
 5.9466   2.00995
 5.9398   2.04901
 5.9330   2.11909
 5.9262   2.08400
 5.9195   2.06777
 5.9127   2.07981
 5.9060   2.18627
 5.8993   2.23656
 5.8926   2.13253
 5.8859   2.13509
 5.8792   2.14860
 5.8726   2.08493
 5.8659   2.05251
 5.8593   2.05876
 5.8527   2.09189
 5.8461   2.18001
 5.8395   2.16481
 5.8329   2.19689
 5.8264   2.23964
 5.8198   2.21770
 5.8133   2.10013
 5.8068   2.00763
 5.8003   2.09177
 5.7938   2.18852
 5.7874   2.17912
 5.7809   2.18622
 5.7745   2.21893
 5.7680   2.26120
 5.7616   2.28784
 5.7552   2.20807
 5.7489   2.13240
 5.7425   2.16475
 5.7361   2.22390
 5.7298   2.23747
 5.7235   2.26351
 5.7172   2.30564
 5.7109   2.32883
 5.7046   2.35245
 5.6983   2.30150
 5.6921   2.41655
 5.6858   2.46757
 5.6796   2.35525
 5.6734   2.30390
 5.6672   2.34606
 5.6610   2.44528
 5.6548   2.54996
 5.6487   2.54824
 5.6425   2.48530
 5.6364   2.48005
 5.6303   2.47909
 5.6242   2.40160
 5.6181   2.35512
 5.6120   2.36934
 5.6059   2.38456
 5.5999   2.32487
 5.5938   2.25103
 5.5878   2.31905
 5.5818   2.29768
 5.5758   2.20778
 5.5698   2.12574
 5.5638   2.03360
 5.5578   1.99361
 5.5519   2.04423
 5.5460   2.09639
 5.5400   2.12906
 5.5341   2.21929
 5.5282   2.43231
 5.5223   2.50779
 5.5164   2.36039
 5.5106   2.23692
 5.5047   2.29080
 5.4989   2.40564
 5.4931   2.46806
 5.4873   2.49892
 5.4815   2.56198
 5.4757   2.62539
 5.4699   2.62296
 5.4641   2.64383
 5.4584   2.64445
 5.4527   2.71850
 5.4469   2.90429
 5.4412   3.05885
 5.4355   3.05809
 5.4298   3.11616
 5.4241   3.19610
 5.4185   3.26986
 5.4128   3.42429
 5.4072   3.53486
 5.4015   3.52984
 5.3959   3.56186
 5.3903   3.60216
 5.3847   3.59110
 5.3791   3.56522
 5.3735   3.61186
 5.3680   3.70926
 5.3624   3.77136
 5.3569   3.81915
 5.3514   3.83393
 5.3458   3.81476
 5.3403   3.80182
 5.3348   3.82531
 5.3294   3.82495
 5.3239   3.84031
 5.3184   3.90074
 5.3130   3.98341
 5.3075   4.03792
 5.3021   4.02887
 5.2967   4.09255
 5.2913   4.12891
 5.2859   4.19265
 5.2805   4.23982
 5.2751   4.23287
 5.2698   4.25915
 5.2644   4.36843
 5.2591   4.42927
 5.2538   4.48242
 5.2485   4.55047
 5.2431   4.56842
 5.2378   4.59494
 5.2326   4.65134
 5.2273   4.70123
 5.2220   4.78072
 5.2168   4.89435
 5.2115   4.99862
 5.2063   5.02293
 5.2011   5.01056
 5.1959   4.93935
 5.1907   4.96772
 5.1855   5.05916
 5.1803   5.07904
 5.1751   5.13297
 5.1700   5.25153
 5.1648   5.26220
 5.1597   5.24133
 5.1545   5.23676
 5.1494   5.24418
 5.1443   5.29445
 5.1392   5.33364
 5.1341   5.32477
 5.1291   5.30405
 5.1240   5.31832
 5.1189   5.41736
 5.1139   5.39058
 5.1088   5.28865
 5.1038   5.14141
 5.0988   5.09561
 5.0938   5.21552
 5.0888   5.35661
 5.0838   5.45989
 5.0788   5.44531
 5.0738   5.36342
 5.0689   5.30789
 5.0639   5.23021
 5.0590   5.32709
 5.0541   5.43526
 5.0491   5.47254
 5.0442   5.60496
 5.0393   5.74042
 5.0344   5.76697
 5.0296   5.69426
 5.0247   5.71567
 5.0198   5.82763
 5.0150   5.78565
 5.0101   5.71928
 5.0053   5.82591
 5.0004   5.91878
 4.9956   5.92661
 4.9908   5.84138
 4.9860   5.94758
 4.9812   6.03469
 4.9765   5.93821
 4.9717   5.94943
 4.9669   6.09198
 4.9622   6.13227
 4.9574   6.08530
 4.9527   6.03671
 4.9480   6.09014
 4.9432   6.15832
 4.9385   6.26565
 4.9338   6.31478
 4.9291   6.31552
 4.9245   6.32904
 4.9198   6.34364
 4.9151   6.39503
 4.9105   6.45450
 4.9058   6.50939
 4.9012   6.52829
 4.8966   6.60245
 4.8919   6.66192
 4.8873   6.63287
 4.8827   6.64628
 4.8781   6.71262
 4.8736   6.76421
 4.8690   6.87373
 4.8644   6.87450
 4.8599   6.91550
 4.8553   6.93185
 4.8508   6.80828
 4.8462   6.86497
 4.8417   7.06028
 4.8372   7.15443
 4.8327   7.15238
 4.8282   7.13507
 4.8237   7.17026
 4.8192   7.17742
 4.8147   7.19779
 4.8103   7.22860
 4.8058   7.25077
 4.8014   7.30504
 4.7969   7.33015
 4.7925   7.27853
 4.7881   7.40410
 4.7836   7.49687
 4.7792   7.39138
 4.7748   7.36061
 4.7704   7.42882
 4.7660   7.41796
 4.7617   7.35168
 4.7573   7.38182
 4.7530   7.43115
 4.7486   7.40282
 4.7443   7.34032
 4.7399   7.30410
 4.7356   7.22853
 4.7313   7.23921
 4.7270   7.21424
 4.7226   7.11322
 4.7184   7.03758
 4.7141   6.92541
 4.7098   6.74430
 4.7055   6.64986
 4.7012   6.55025
 4.6970   6.34869
 4.6927   6.22552
 4.6885   6.23605
 4.6842   6.04314
 4.6800   5.94637
 4.6758   5.93460
 4.6716   5.90422
 4.6674   5.86344
 4.6632   5.82204
 4.6590   5.86033
 4.6548   5.81477
 4.6506   5.80471
 4.6465   5.82058
 4.6423   5.80047
 4.6382   5.93212
 4.6340   6.13252
 4.6299   6.16362
 4.6258   6.17820
 4.6216   6.24552
 4.6175   6.28162
 4.6134   6.35735
 4.6093   6.35571
 4.6052   6.28913
 4.6011   6.38822
 4.5971   6.47805
 4.5930   6.59421
 4.5889   6.68496
 4.5849   6.75959
 4.5808   6.88080
 4.5768   6.91768
 4.5727   7.02044
 4.5687   7.03213
 4.5647   7.05377
 4.5607   7.10764
 4.5567   7.13736
 4.5526   7.26600
 4.5487   7.36433
 4.5447   7.33659
 4.5407   7.33377
 4.5367   7.31945
 4.5328   7.37099
 4.5288   7.49553
 4.5248   7.48953
 4.5209   7.43683
 4.5170   7.61472
 4.5130   7.71948
 4.5091   7.60567
 4.5052   7.64166
 4.5013   7.79884
 4.4974   7.88410
 4.4935   7.98282
 4.4896   8.09870
 4.4857   8.12302
 4.4818   8.23392
 4.4779   8.31214
 4.4741   8.28885
 4.4702   8.25370
 4.4664   8.24047
 4.4625   8.23255
 4.4587   8.18832
 4.4549   8.10237
 4.4510   8.02329
 4.4472   8.03820
 4.4434   8.13039
 4.4396   8.13136
 4.4358   8.16823
 4.4320   8.26312
 4.4282   8.28173
 4.4245   8.47732
 4.4207   8.65331
 4.4169   8.66281
 4.4132   8.72227
 4.4094   8.77688
 4.4057   8.81248
 4.4019   8.86111
 4.3982   9.02221
 4.3945   9.14980
 4.3907   9.30429
 4.3870   9.47492
 4.3833   9.51503
 4.3796   9.52567
 4.3759   9.67536
 4.3722   9.72283
 4.3685   9.63882
 4.3649   9.74785
 4.3612   9.87010
 4.3575   9.81075
 4.3539   9.71278
 4.3502   9.63782
 4.3466   9.52803
 4.3429   9.50259
 4.3393   9.38261
 4.3357   9.24850
 4.3320   9.27692
 4.3284   9.24143
 4.3248   9.05336
 4.3212   9.00547
 4.3176   8.98547
 4.3140   8.87310
 4.3105   8.80121
 4.3069   8.70925
 4.3033   8.55961
 4.2997   8.63846
 4.2962   8.68302
 4.2926   8.66797
 4.2890   8.60722
 4.2855   8.48912
 4.2820   8.36644
 4.2784   8.28441
 4.2749   8.28078
 4.2714   8.36237
 4.2679   8.49903
 4.2644   8.59522
 4.2609   8.76025
 4.2574   8.89278
 4.2539   8.93033
 4.2504   8.94003
 4.2469   8.79603
 4.2434   8.62012
 4.2400   8.67282
 4.2365   8.77203
 4.2330   8.76303
 4.2296   8.85836
 4.2261   9.01336
 4.2227   9.11568
 4.2193   9.18110
 4.2158   9.30174
 4.2124   9.46845
 4.2090   9.56931
 4.2056   9.77800
 4.2022   9.92878
 4.1988   9.96682
 4.1954   9.91579
 4.1920   9.85533
 4.1886   9.78857
 4.1852   9.78428
 4.1818   9.91183
 4.1785   9.91266
 4.1751   9.88002
 4.1717   9.84664
 4.1684   9.68440
 4.1650   9.58987
 4.1617   9.67476
 4.1584   9.63387
 4.1550   9.42719
 4.1517   9.32778
 4.1484   9.32938
 4.1451   9.34334
 4.1418   9.35505
 4.1384   9.33302
 4.1351   9.26335
 4.1319   9.13270
 4.1286   9.08488
 4.1253   9.07852
 4.1220   9.03322
 4.1187   8.97837
 4.1155   8.89411
 4.1122   8.76982
 4.1089   8.74731
 4.1057   8.77498
 4.1024   8.64184
 4.0992   8.48775
 4.0959   8.38863
 4.0927   8.42286
 4.0895   8.34988
 4.0863   8.22527
 4.0830   8.19313
 4.0798   8.01133
 4.0766   7.89018
 4.0734   7.80590
 4.0702   7.76254
 4.0670   7.74853
 4.0639   7.61892
 4.0607   7.47188
 4.0575   7.38631
 4.0543   7.19486
 4.0511   6.99156
 4.0480   6.78771
 4.0448   6.53768
 4.0417   6.34588
 4.0385   6.33375
 4.0354   6.20869
 4.0323   6.08202
 4.0291   5.90086
 4.0260   5.58683
 4.0229   5.45609
 4.0197   5.34123
 4.0166   5.25195
 4.0135   5.07926
 4.0104   4.85556
 4.0073   4.79265
 4.0042   4.75608
 4.0011   4.66047
 3.9981   4.49289
 3.9950   4.26018
 3.9919   4.25094
 3.9888   4.14191
 3.9857   4.00431
 3.9827   4.00248
 3.9796   3.95845
 3.9766   3.86466
 3.9735   3.75255
 3.9705   3.74004
 3.9675   3.85093
 3.9644   3.76051
 3.9614   3.64683
 3.9584   3.70066
 3.9554   3.81672
 3.9523   3.80540
 3.9493   3.80560
 3.9463   3.84019
 3.9433   3.88585
 3.9403   4.05544
 3.9373   4.03516
 3.9343   3.98059
 3.9314   3.97015
 3.9284   3.95578
 3.9254   4.03443
 3.9224   4.16898
 3.9195   4.25379
 3.9165   4.30031
 3.9136   4.25707
 3.9106   4.31189
 3.9077   4.40641
 3.9047   4.44878
 3.9018   4.46545
 3.8988   4.35692
 3.8959   4.35954
 3.8930   4.47661
 3.8901   4.60141
 3.8872   4.65076
 3.8842   4.68683
 3.8813   4.68914
 3.8784   4.65185
 3.8755   4.51525
 3.8726   4.51294
 3.8697   4.48487
 3.8669   4.54891
 3.8640   4.69933
 3.8611   4.73914
 3.8582   4.71775
 3.8554   4.83692
 3.8525   5.08843
 3.8496   5.17465
 3.8468   5.13961
 3.8439   5.27056
 3.8411   5.36024
 3.8382   5.22400
 3.8354   5.16439
 3.8326   5.27606
 3.8297   5.37576
 3.8269   5.43006
 3.8241   5.36125
 3.8213   5.23668
 3.8185   5.11990
 3.8157   5.12745
 3.8128   5.20216
 3.8100   5.30691
 3.8072   5.35742
 3.8045   5.37421
 3.8017   5.49660
 3.7989   5.66820
 3.7961   5.80070
 3.7933   5.98891
 3.7906   6.13164
 3.7878   6.15435
 3.7850   6.27872
 3.7822   6.56222
 3.7795   6.83991
 3.7767   7.09731
 3.7740   7.21536
 3.7713   7.24267
 3.7685   7.36684
 3.7658   7.55162
 3.7630   7.62509
 3.7603   7.69378
 3.7576   7.81631
 3.7549   8.06535
 3.7521   8.45498
 3.7494   8.81269
 3.7467   9.07520
 3.7440   9.23227
 3.7413   9.43592
 3.7386   9.69855
 3.7359   9.81343
 3.7332  10.05450
 3.7306  10.25590
 3.7279  10.33220
 3.7252  10.43590
 3.7225  10.49990
 3.7199  10.64750
 3.7172  10.75780
 3.7145  10.73260
 3.7119  10.85860
 3.7092  11.01090
 3.7066  10.97280
 3.7039  11.08830
 3.7013  11.28620
 3.6986  11.33970
 3.6960  11.28240
 3.6934  11.34450
 3.6907  11.42870
 3.6881  11.52610
 3.6855  11.57090
 3.6829  11.52370
 3.6803  11.48960
 3.6776  11.64380
 3.6750  11.72210
 3.6724  11.73780
 3.6698  11.78650
 3.6672  11.94210
 3.6646  11.95120
 3.6620  11.90610
 3.6595  11.75530
 3.6569  11.65260
 3.6543  11.70430
 3.6517  11.71570
 3.6492  11.76670
 3.6466  11.60610
 3.6440  11.67580
 3.6415  11.88650
 3.6389  11.92420
 3.6364  11.88610
 3.6338  11.76990
 3.6313  11.62520
 3.6287  11.58450
 3.6262  11.60500
 3.6237  11.57630
 3.6211  11.61360
 3.6186  11.73720
 3.6161  11.65280
 3.6136  11.46530
 3.6111  11.45880
 3.6085  11.57550
 3.6060  11.44700
 3.6035  11.25240
 3.6010  11.28090
 3.5985  11.27730
 3.5960  11.19490
 3.5935  11.08150
 3.5910  10.92500
 3.5886  10.77130
 3.5861  10.64410
 3.5836  10.50590
 3.5811  10.41610
 3.5787  10.38410
 3.5762  10.21210
 3.5737   9.95641
 3.5713   9.81244
 3.5688   9.89613
 3.5663   9.85632
 3.5639   9.74222
 3.5614   9.45645
 3.5590   9.23652
 3.5566   9.35074
 3.5541   9.20848
 3.5517   9.05997
 3.5493   8.94843
 3.5468   8.67192
 3.5444   8.57828
 3.5420   8.61303
 3.5396   8.62131
 3.5372   8.49983
 3.5347   8.15676
 3.5323   7.87975
 3.5299   7.76077
 3.5275   7.56942
 3.5251   7.38023
 3.5227   7.15223
 3.5203   6.79548
 3.5180   6.61120
 3.5156   6.41101
 3.5132   6.09218
 3.5108   5.91191
 3.5084   5.75914
 3.5061   5.65687
 3.5037   5.71327
 3.5013   5.59096
 3.4990   5.27294
 3.4966   5.10822
 3.4943   5.02668
 3.4919   4.85680
 3.4895   4.76568
 3.4872   4.82897
 3.4849   4.81830
 3.4825   4.77637
 3.4802   4.71212
 3.4778   4.66871
 3.4755   4.73066
 3.4732   4.74246
 3.4709   4.87326
 3.4685   4.93204
 3.4662   4.78037
 3.4639   4.82715
 3.4616   4.90352
 3.4593   4.90062
 3.4570   4.77370
 3.4547   4.68644
 3.4524   4.86161
 3.4501   5.16302
 3.4478   5.12714
 3.4455   4.85357
 3.4432   4.79588
 3.4409   4.79680
 3.4386   4.66186
 3.4364   4.93739
 3.4341   5.20943
 3.4318   5.12871
 3.4295   5.13549
 3.4273   5.00878
 3.4250   4.94897
 3.4228   5.16822
 3.4205   5.54292
 3.4182   5.42298
 3.4160   5.21556
 3.4137   5.30259
 3.4115   5.38318
 3.4093   5.57556
 3.4070   5.60720
 3.4048   5.53317
 3.4025   5.37004
 3.4003   5.31227
 3.3981   5.35050
 3.3958   5.21207
 3.3936   5.02011
 3.3914   5.13508
 3.3892   5.53886
 3.3870   5.55538
 3.3848   5.60518
 3.3826   5.75600
 3.3804   5.53137
 3.3782   5.31369
 3.3760   5.48105
 3.3738   5.66432
 3.3716   5.62321
 3.3694   5.47125
 3.3672   5.37159
 3.3650   5.26301
 3.3628   5.38531
 3.3606   5.39037
 3.3585   5.28756
 3.3563   5.24114
 3.3541   5.10644
 3.3520   4.98889
 3.3498   4.88065
 3.3476   4.84925
 3.3455   5.03026
 3.3433   5.26478
 3.3411   5.40053
 3.3390   5.44701
 3.3369   5.56977
 3.3347   5.80980
 3.3326   5.94386
 3.3304   6.25715
 3.3283   6.40528
 3.3262   6.05022
 3.3240   5.99680
 3.3219   6.21740
 3.3198   6.12207
 3.3176   5.97702
 3.3155   5.92527
 3.3134   5.78087
 3.3113   6.07260
 3.3092   6.29097
 3.3071   6.04160
 3.3049   5.86218
 3.3028   5.98600
 3.3007   6.43315
 3.2986   6.54259
 3.2965   6.63295
 3.2944   6.87752
 3.2924   7.17804
 3.2903   7.42768
 3.2882   7.80139
 3.2861   8.09816
 3.2840   8.03011
 3.2819   8.14732
 3.2799   8.22064
 3.2778   8.05019
 3.2757   8.07710
 3.2736   8.27358
 3.2716   8.32421
 3.2695   8.37729
 3.2675   8.24349
 3.2654   8.16808
 3.2634   8.42491
 3.2613   8.49963
 3.2593   8.41159
 3.2572   8.55316
 3.2552   8.51536
 3.2531   8.29028
 3.2511   8.41109
 3.2490   8.64093
 3.2470   8.50697
 3.2450   8.27451
 3.2429   8.30514
 3.2409   8.51027
 3.2389   8.48533
 3.2369   8.36951
 3.2348   8.32822
 3.2328   8.42821
 3.2308   8.61086
 3.2288   8.70071
 3.2268   8.62211
 3.2248   8.23841
 3.2228   8.05818
 3.2208   8.13835
 3.2188   8.19034
 3.2168   8.10689
 3.2148   8.16956
 3.2128   8.38789
 3.2108   8.35718
 3.2088   8.09474
 3.2068   8.08098
 3.2049   8.05964
 3.2029   8.15223
 3.2009   8.19964
 3.1989   7.84241
 3.1970   7.71178
 3.1950   7.98001
 3.1930   8.13216
 3.1911   8.03322
 3.1891   7.81094
 3.1871   7.81387
 3.1852   7.61024
 3.1832   7.49206
 3.1813   7.81403
 3.1793   7.79911
 3.1774   7.63954
 3.1754   7.77155
 3.1735   7.84668
 3.1715   7.96602
 3.1696   7.86418
 3.1677   7.46749
 3.1657   7.25260
 3.1638   7.29349
 3.1619   7.23731
 3.1599   7.25871
 3.1580   7.34208
 3.1561   7.61423
 3.1542   7.74500
 3.1523   7.47783
 3.1503   7.27590
 3.1484   7.41699
 3.1465   7.28825
 3.1446   7.12086
 3.1427   7.17466
 3.1408   7.43761
 3.1389   7.25281
 3.1370   7.19680
 3.1351   7.19077
 3.1332   7.13851
 3.1313   7.14695
 3.1294   6.94699
 3.1275   6.94935
 3.1257   6.90686
 3.1238   6.87265
 3.1219   6.96748
 3.1200   7.11377
 3.1181   6.86953
 3.1163   6.70259
 3.1144   6.90975
 3.1125   6.88588
 3.1107   6.71635
 3.1088   6.60337
 3.1069   6.41922
 3.1051   6.43953
 3.1032   6.80277
 3.1014   6.76706
 3.0995   6.50497
 3.0976   6.63420
 3.0958   6.97088
 3.0940   6.92389
 3.0921   6.50293
 3.0903   6.16634
 3.0884   6.45075
 3.0866   6.49273
 3.0848   6.38581
 3.0829   6.34262
 3.0811   6.34743
 3.0793   6.19165
 3.0774   6.42656
 3.0756   6.66865
 3.0738   6.48735
 3.0720   6.48203
 3.0701   6.59103
 3.0683   6.48185
 3.0665   6.07086
 3.0647   6.12139
 3.0629   6.36357
 3.0611   6.41916
 3.0593   6.25849
 3.0575   6.44165
 3.0557   6.67804
 3.0539   6.52938
 3.0521   6.44702
 3.0503   6.45622
 3.0485   6.43026
 3.0467   6.38853
 3.0449   6.26589
 3.0431   6.28802
 3.0413   5.97367
 3.0396   5.62344
 3.0378   5.86289
 3.0360   6.12469
 3.0342   6.21972
 3.0324   6.52638
 3.0307   6.48956
 3.0289   6.33387
 3.0271   6.52628
 3.0254   6.15897
 3.0236   6.06130
 3.0218   6.40470
 3.0201   6.46239
 3.0183   6.35729
 3.0166   6.19634
 3.0148   6.08840
 3.0130   6.04082
 3.0113   6.17006
 3.0096   6.29416
 3.0078   6.15388
 3.0061   6.05642
 3.0043   6.07687
 3.0026   6.09062
 3.0008   6.27109
 2.9991   6.14149
 2.9974   6.16149
 2.9956   6.19564
 2.9939   6.09724
 2.9922   6.18847
 2.9905   5.96279
 2.9887   5.83938
 2.9870   6.01701
 2.9853   6.30887
 2.9836   6.40559
 2.9819   5.98035
 2.9802   5.93411
 2.9784   6.00108
 2.9767   6.15313
 2.9750   6.30552
 2.9733   6.19681
 2.9716   6.14506
 2.9699   5.89262
 2.9682   6.13436
 2.9665   6.19071
 2.9648   5.85932
 2.9631   6.14911
 2.9614   6.22675
 2.9597   5.93869
 2.9581   5.99165
 2.9564   5.91632
 2.9547   5.94760
 2.9530   6.28464
 2.9513   6.31552
 2.9496   5.85471
 2.9480   5.64879
 2.9463   5.82232
 2.9446   5.80937
 2.9429   6.01423
 2.9413   6.29963
 2.9396   6.27439
 2.9379   6.10709
 2.9363   6.32107
 2.9346   6.51664
 2.9330   6.51313
 2.9313   6.61316
 2.9296   6.62585
 2.9280   6.51000
 2.9263   6.27788
 2.9247   5.76504
 2.9230   5.46661
 2.9214   5.49663
 2.9197   5.69539
 2.9181   6.28585
 2.9165   6.47468
 2.9148   6.08403
 2.9132   6.15346
 2.9116   6.21954
 2.9099   6.37877
 2.9083   6.42136
 2.9067   6.28998
 2.9050   6.11827
 2.9034   5.82272
 2.9018   5.97719
 2.9002   5.93511
 2.8985   6.25686
 2.8969   6.61878
 2.8953   6.06732
 2.8937   5.73201
 2.8921   6.13077
 2.8905   6.39880
 2.8888   6.21837
 2.8872   5.90266
 2.8856   6.07200
 2.8840   6.57723
 2.8824   6.51703
 2.8808   6.34564
 2.8792   6.61352
 2.8776   6.61092
 2.8760   6.31244
 2.8744   6.04679
 2.8728   6.18928
 2.8712   6.50629
 2.8697   6.22426
 2.8681   5.80307
 2.8665   6.05895
 2.8649   6.23379
 2.8633   6.20140
 2.8617   6.31609
 2.8602   6.19926
 2.8586   6.27368
 2.8570   6.50932
 2.8554   6.49168
 2.8539   6.63718
 2.8523   6.73057
 2.8507   6.21471
 2.8492   5.94535
 2.8476   6.24273
 2.8460   6.36138
 2.8445   6.66943
 2.8429   6.83076
 2.8413   6.62652
 2.8398   6.04636
 2.8382   5.52556
 2.8367   5.68073
 2.8351   5.99430
 2.8336   6.09156
 2.8320   6.45610
 2.8305   6.57269
 2.8289   6.51686
 2.8274   6.32544
 2.8259   6.33374
 2.8243   6.57984
 2.8228   6.62991
 2.8213   6.65786
 2.8197   6.36801
 2.8182   5.99987
 2.8167   6.15062
 2.8151   6.36184
 2.8136   6.60146
 2.8121   6.85037
 2.8106   6.57321
 2.8090   6.35859
 2.8075   6.77586
 2.8060   6.57048
 2.8045   6.44753
 2.8030   6.62886
 2.8014   6.68024
 2.7999   6.67166
 2.7984   6.77826
 2.7969   7.06383
 2.7954   6.69846
 2.7939   6.05828
 2.7924   6.11057
 2.7909   6.32371
 2.7894   6.60258
 2.7879   6.05575
 2.7864   5.44602
 2.7849   5.97428
 2.7834   6.53389
 2.7819   6.35428
 2.7804   5.88848
 2.7789   6.41111
 2.7774   6.80038
 2.7759   5.92864
 2.7745   5.79117
 2.7730   6.32560
 2.7715   6.61139
 2.7700   6.47666
 2.7685   5.72060
 2.7671   5.83495
 2.7656   6.31766
 2.7641   6.41116
 2.7626   6.36390
 2.7612   6.68460
 2.7597   7.03388
 2.7582   7.04523
 2.7568   6.83246
 2.7553   6.80838
 2.7538   6.78263
 2.7524   6.97613
 2.7509   7.08582
 2.7494   6.90626
 2.7480   6.92321
 2.7465   7.14531
 2.7451   7.57728
 2.7436   7.71658
 2.7422   7.37289
 2.7407   7.16890
 2.7393   7.38575
 2.7378   7.45530
 2.7364   7.51249
 2.7350   7.74482
 2.7335   7.99455
 2.7321   8.15854
 2.7306   8.24423
 2.7292   8.29165
 2.7278   8.26147
 2.7263   8.52262
 2.7249   8.68507
 2.7235   8.68104
 2.7220   9.03639
 2.7206   9.36624
 2.7192   9.40774
 2.7178   9.61988
 2.7163   9.82981
 2.7149  10.04600
 2.7135  10.32350
 2.7121  10.65000
 2.7106  10.95470
 2.7092  11.58660
 2.7078  12.11610
 2.7064  12.41720
 2.7050  12.92160
 2.7036  13.57430
 2.7022  14.22180
 2.7008  15.04270
 2.6994  15.49720
 2.6980  15.87080
 2.6965  16.26380
 2.6951  16.72270
 2.6938  17.30480
 2.6923  17.34830
 2.6910  17.91050
 2.6896  18.55940
 2.6882  18.93380
 2.6868  19.35950
 2.6854  19.54830
 2.6840  19.85580
 2.6826  20.11510
 2.6812  20.40830
 2.6798  20.62540
 2.6784  21.09210
 2.6771  21.57990
 2.6757  21.73620
 2.6743  21.45670
 2.6729  21.51690
 2.6715  22.16960
 2.6702  22.25230
 2.6688  21.81720
 2.6674  21.83490
 2.6660  22.20720
 2.6647  22.50330
 2.6633  22.29040
 2.6619  22.26030
 2.6606  22.50940
 2.6592  22.85580
 2.6578  22.84340
 2.6565  22.98910
 2.6551  23.16730
 2.6538  23.26510
 2.6524  23.17050
 2.6511  23.13520
 2.6497  23.39390
 2.6484  23.50970
 2.6470  23.28930
 2.6456  23.52850
 2.6443  23.93430
 2.6429  23.98520
 2.6416  23.76840
 2.6403  23.55540
 2.6389  23.39680
 2.6376  23.46250
 2.6362  23.44290
 2.6349  23.53480
 2.6336  23.79230
 2.6322  23.95550
 2.6309  24.39960
 2.6296  24.44640
 2.6282  24.20470
 2.6269  23.96600
 2.6256  23.66810
 2.6242  23.39950
 2.6229  23.59670
 2.6216  24.12070
 2.6203  24.04540
 2.6189  23.61280
 2.6176  23.84040
 2.6163  24.05470
 2.6150  23.64550
 2.6136  23.67110
 2.6123  23.82140
 2.6110  23.81010
 2.6097  23.73350
 2.6084  23.89720
 2.6071  24.17440
 2.6058  24.43840
 2.6044  24.10970
 2.6031  23.84200
 2.6018  23.79480
 2.6005  24.07880
 2.5992  23.99270
 2.5979  23.80420
 2.5966  24.12580
 2.5953  24.52760
 2.5940  24.30750
 2.5927  24.01990
 2.5914  23.76310
 2.5901  23.88980
 2.5888  24.46730
 2.5876  24.49580
 2.5863  24.51980
 2.5850  24.44840
 2.5837  23.55980
 2.5824  23.12280
 2.5811  23.18690
 2.5798  23.52270
 2.5785  23.60420
 2.5773  23.16450
 2.5760  23.25960
 2.5747  23.86500
 2.5734  23.68470
 2.5722  23.34060
 2.5709  23.78850
 2.5696  23.42860
 2.5683  23.12720
 2.5671  22.99450
 2.5658  22.73200
 2.5645  22.61650
 2.5633  22.50890
 2.5620  22.26150
 2.5607  22.23390
 2.5595  21.93110
 2.5582  21.64240
 2.5569  21.27080
 2.5557  20.87540
 2.5544  20.47660
 2.5532  20.50640
 2.5519  20.88880
 2.5507  20.63450
 2.5494  20.31000
 2.5481  19.85500
 2.5469  19.50290
 2.5456  18.87800
 2.5444  18.64960
 2.5431  18.68080
 2.5419  18.02810
 2.5406  17.47340
 2.5394  17.25280
 2.5382  17.22120
 2.5369  16.85400
 2.5357  16.68560
 2.5344  16.82590
 2.5332  17.02690
 2.5320  17.20100
 2.5307  17.10640
 2.5295  17.09250
 2.5283  16.84650
 2.5270  16.97710
 2.5258  17.11610
 2.5246  16.98150
 2.5233  17.02330
 2.5221  16.94180
 2.5209  16.73770
 2.5197  16.87210
 2.5184  17.27680
 2.5172  17.45240
 2.5160  17.60500
 2.5148  17.56920
 2.5136  17.38210
 2.5123  17.59310
 2.5111  17.61140
 2.5099  17.54230
 2.5087  17.14670
 2.5075  17.15220
 2.5063  17.89240
 2.5051  18.30790
 2.5038  18.10480
 2.5026  17.96860
 2.5014  18.33040
 2.5002  18.22810
 2.4990  17.95290
 2.4978  17.95460
 2.4966  17.82850
 2.4954  18.21520
 2.4942  18.65130
 2.4930  18.56890
 2.4918  18.45380
 2.4906  18.30180
 2.4894  18.27210
 2.4882  18.74490
 2.4870  19.35980
 2.4858  19.52990
 2.4846  19.10240
 2.4835  18.87930
 2.4823  19.21220
 2.4811  19.36740
 2.4799  19.51420
 2.4787  19.80900
 2.4775  19.92510
 2.4764  20.06000
 2.4752  20.64670
 2.4740  20.77350
 2.4728  20.39440
 2.4716  20.54820
 2.4705  20.63550
 2.4693  20.51100
 2.4681  20.11370
 2.4669  19.94620
 2.4657  20.20900
 2.4646  20.53380
 2.4634  20.61870
 2.4622  20.48020
 2.4611  20.66440
 2.4599  21.40150
 2.4587  21.56140
 2.4576  21.58430
 2.4564  21.89760
 2.4552  21.93590
 2.4541  21.74110
 2.4529  21.46000
 2.4518  21.60560
 2.4506  21.88920
 2.4494  22.42350
 2.4483  22.36050
 2.4471  21.98980
 2.4460  22.11630
 2.4448  22.49700
 2.4437  22.51490
 2.4425  22.96740
 2.4414  23.24100
 2.4402  23.35500
 2.4391  23.17910
 2.4379  23.20780
 2.4368  23.47400
 2.4356  23.64970
 2.4345  23.87110
 2.4333  23.71790
 2.4322  23.49270
 2.4311  23.69800
 2.4299  23.71910
 2.4288  23.47930
 2.4276  23.86700
 2.4265  24.19150
 2.4254  24.22460
 2.4242  24.47410
 2.4231  24.78310
 2.4220  24.94760
 2.4209  25.04880
 2.4197  24.89070
 2.4186  25.03990
 2.4175  25.54410
 2.4163  25.50460
 2.4152  25.64130
 2.4141  25.67730
 2.4130  25.82530
 2.4118  26.07970
 2.4107  25.53290
 2.4096  25.08070
 2.4085  24.88900
 2.4074  25.27820
 2.4063  25.68710
 2.4051  25.57740
 2.4040  25.47220
 2.4029  25.65000
 2.4018  25.66000
 2.4007  25.87850
 2.3996  26.12740
 2.3985  25.78580
 2.3973  25.74400
 2.3962  25.89520
 2.3951  25.93860
 2.3940  25.85730
 2.3929  25.82850
 2.3918  26.11060
 2.3907  26.14590
 2.3896  26.14540
 2.3885  25.89230
 2.3874  25.92580
 2.3863  26.34650
 2.3852  26.39200
 2.3841  26.40830
 2.3830  26.23880
 2.3819  25.95780
 2.3808  26.11370
 2.3798  26.24810
 2.3786  26.15570
 2.3776  26.04530
 2.3765  26.04590
 2.3754  25.99260
 2.3743  25.91890
 2.3732  26.16650
 2.3721  26.12520
 2.3710  26.20680
 2.3700  26.19390
 2.3689  25.75700
 2.3678  25.59500
 2.3667  25.71210
 2.3656  25.36120
 2.3645  25.41720
 2.3635  25.72480
 2.3624  25.31360
 2.3613  24.55550
 2.3603  24.11920
 2.3592  24.05440
 2.3581  24.17310
 2.3570  24.34000
 2.3560  23.92580
 2.3549  23.86060
 2.3538  24.21660
 2.3527  23.68170
 2.3517  22.88490
 2.3506  22.98030
 2.3495  23.00400
 2.3485  22.25380
 2.3474  21.87230
 2.3464  22.36720
 2.3453  22.64250
 2.3442  22.41570
 2.3432  22.10810
 2.3421  21.98920
 2.3411  22.26870
 2.3400  22.14140
 2.3390  21.48870
 2.3379  21.26370
 2.3369  21.92510
 2.3358  21.91620
 2.3347  21.16490
 2.3337  21.10130
 2.3326  21.75740
 2.3316  21.78670
 2.3306  21.16530
 2.3295  20.91950
 2.3285  20.94270
 2.3274  20.92560
 2.3264  21.42710
 2.3253  22.20530
 2.3243  22.39540
 2.3232  22.18260
 2.3222  21.86200
 2.3212  21.86540
 2.3201  22.22570
 2.3191  22.09650
 2.3180  21.61720
 2.3170  22.05430
 2.3160  22.50200
 2.3149  22.76240
 2.3139  22.43480
 2.3129  22.31920
 2.3118  22.12420
 2.3108  21.68090
 2.3098  22.45130
 2.3088  23.39050
 2.3077  23.14260
 2.3067  22.44970
 2.3057  22.22020
 2.3047  22.32620
 2.3036  22.78620
 2.3026  22.85620
 2.3016  22.99310
 2.3006  23.62550
 2.2995  23.72930
 2.2985  23.37630
 2.2975  23.34240
 2.2965  23.49040
 2.2955  23.85350
 2.2944  23.82540
 2.2934  23.66770
 2.2924  23.73250
 2.2914  23.66730
 2.2904  24.09770
 2.2894  24.49510
 2.2884  24.15140
 2.2874  24.15220
 2.2864  24.55900
 2.2854  24.22270
 2.2843  23.89030
 2.2833  23.80550
 2.2823  24.12720
 2.2813  24.59900
 2.2803  24.73590
 2.2793  24.70200
 2.2783  24.88040
 2.2773  24.96650
 2.2763  24.92760
 2.2753  24.86750
 2.2743  25.69900
 2.2733  26.24360
 2.2723  25.84240
 2.2713  25.17160
 2.2703  25.13820
 2.2694  25.33760
 2.2684  25.44340
 2.2674  26.44600
 2.2664  26.57940
 2.2654  24.95060
 2.2644  24.75460
 2.2634  25.78370
 2.2624  25.90880
 2.2614  25.59080
 2.2605  25.72500
 2.2595  25.50850
 2.2585  25.55200
 2.2575  25.67140
 2.2565  25.61210
 2.2555  25.61010
 2.2546  25.86670
 2.2536  26.35270
 2.2526  26.48370
 2.2516  26.05690
 2.2506  26.02540
 2.2497  26.46400
 2.2487  26.57940
 2.2477  26.37420
 2.2467  25.61170
 2.2458  25.79980
 2.2448  27.01060
 2.2438  26.93490
 2.2428  26.46550
 2.2419  26.24360
 2.2409  26.19330
 2.2399  26.48730
 2.2390  27.21040
 2.2380  28.16680
 2.2370  27.62130
 2.2361  27.23210
 2.2351  27.07620
 2.2342  26.59880
 2.2332  26.66720
 2.2322  26.47450
 2.2313  26.43890
 2.2303  27.29040
 2.2294  27.90680
 2.2284  28.11350
 2.2274  28.24780
 2.2265  27.85700
 2.2255  28.12350
 2.2246  28.47220
 2.2236  28.45190
 2.2227  28.58450
 2.2217  27.67640
 2.2208  26.58340
 2.2198  27.35570
 2.2189  27.96340
 2.2179  27.52810
 2.2170  27.15210
 2.2160  27.18540
 2.2151  27.49570
 2.2141  27.53310
 2.2132  27.21040
 2.2122  27.19150
 2.2113  27.81190
 2.2103  27.73810
 2.2094  27.30840
 2.2085  27.91670
 2.2075  28.13380
 2.2066  27.75300
 2.2056  27.63270
 2.2047  27.93970
 2.2038  27.93330
 2.2028  28.31720
 2.2019  27.97460
 2.2010  27.42270
 2.2000  27.87860
 2.1991  27.85250
 2.1982  27.53320
 2.1972  28.08760
 2.1963  28.79570
 2.1954  28.85140
 2.1944  28.10100
 2.1935  27.86180
 2.1926  28.55260
 2.1917  28.61970
 2.1907  28.52960
 2.1898  28.40330
 2.1889  28.40910
 2.1880  28.89190
 2.1870  29.23110
 2.1861  28.79700
 2.1852  28.05790
 2.1843  28.07130
 2.1833  28.30850
 2.1824  28.34500
 2.1815  28.57250
 2.1806  29.52620
 2.1797  29.97110
 2.1788  29.19130
 2.1778  29.03420
 2.1769  29.28750
 2.1760  29.27290
 2.1751  28.94320
 2.1742  28.33630
 2.1733  28.46880
 2.1724  29.14620
 2.1715  29.68540
 2.1706  29.46240
 2.1696  29.06870
 2.1687  28.88610
 2.1678  28.88850
 2.1669  29.11640
 2.1660  29.16950
 2.1651  28.62390
 2.1642  29.06480
 2.1633  29.75050
 2.1624  29.64160
 2.1615  29.17360
 2.1606  28.78480
 2.1597  28.93910
 2.1588  29.75580
 2.1579  29.81360
 2.1570  29.61850
 2.1561  29.84600
 2.1552  29.74380
 2.1543  28.71310
 2.1534  28.24250
 2.1525  28.75320
 2.1517  29.22170
 2.1507  29.50660
 2.1499  29.43850
 2.1490  28.98260
 2.1481  28.50900
 2.1472  28.84770
 2.1463  29.64370
 2.1454  29.59900
 2.1445  28.96170
 2.1436  29.40990
 2.1428  29.35740
 2.1419  29.44180
 2.1410  29.65320
 2.1401  29.21870
 2.1392  29.41770
 2.1383  29.50340
 2.1375  29.34490
 2.1366  29.91220
 2.1357  30.30800
 2.1348  29.91830
 2.1339  29.70880
 2.1331  29.39540
 2.1322  29.27090
 2.1313  29.34190
 2.1304  29.60170
 2.1296  30.03050
 2.1287  30.25000
 2.1278  30.54710
 2.1269  30.37310
 2.1261  30.16240
 2.1252  30.39050
 2.1243  29.91650
 2.1235  29.34070
 2.1226  29.78480
 2.1217  30.51570
 2.1208  30.08340
 2.1200  29.55080
 2.1191  29.34160
 2.1183  29.75410
 2.1174  29.42520
 2.1165  29.31350
 2.1157  30.37490
 2.1148  30.12500
 2.1139  30.42900
 2.1131  30.47800
 2.1122  29.26500
 2.1113  29.22590
 2.1105  29.88380
 2.1096  30.33000
 2.1088  29.74310
 2.1079  29.76870
 2.1071  29.69360
 2.1062  29.59480
 2.1054  30.12170
 2.1045  30.29610
 2.1036  29.93770
 2.1028  29.56110
 2.1019  30.07980
 2.1011  30.25200
 2.1002  30.27640
 2.0994  30.20560
 2.0985  29.21590
 2.0977  29.15990
 2.0968  29.75740
 2.0960  29.20070
 2.0951  29.69800
 2.0943  30.55680
 2.0934  30.48480
 2.0926  30.11460
 2.0918  30.91630
 2.0909  30.30370
 2.0901  29.23430
 2.0892  30.03880
 2.0884  30.31490
 2.0875  30.36740
 2.0867  30.10220
 2.0859  29.71580
 2.0850  30.78910
 2.0842  30.64270
 2.0833  30.02610
 2.0825  29.13730
 2.0817  28.53210
 2.0808  29.43950
 2.0800  29.56200
 2.0792  29.37970
 2.0783  30.00890
 2.0775  31.01010
 2.0767  29.92000
 2.0759  30.05960
 2.0750  31.16810
 2.0742  30.94290
 2.0734  29.95040
 2.0725  29.43880
 2.0717  28.96140
 2.0709  29.48420
 2.0701  30.14940
 2.0692  29.86220
 2.0684  30.42640
 2.0676  30.93400
 2.0667  29.54040
 2.0659  29.12620
 2.0651  30.21900
 2.0643  30.61900
 2.0635  30.16160
 2.0626  30.06620
 2.0618  29.96190
 2.0610  29.65780
 2.0602  30.33560
 2.0594  30.62700
 2.0585  29.55020
 2.0577  28.95810
 2.0569  28.96410
 2.0561  30.08070
 2.0553  31.34060
 2.0545  30.84290
 2.0537  30.44420
 2.0528  31.55980
 2.0520  31.41510
 2.0512  28.59550
 2.0504  27.61860
 2.0496  28.41760
 2.0488  30.20820
 2.0480  31.48250
 2.0472  29.20170
 2.0464  27.93810
 2.0456  29.94050
 2.0447  31.61250
 2.0439  29.82100
 2.0431  28.31150
 2.0423  28.42590
 2.0415  29.08440
 2.0407  30.29110
 2.0399  30.00840
 2.0391  29.88050
 2.0383  29.51010
 2.0375  29.67340
 2.0367  30.87260
 2.0359  30.96820
 2.0351  30.44220
 2.0343  30.21610
 2.0335  30.47110
 2.0327  29.20230
 2.0319  28.11810
 2.0311  28.76230
 2.0303  29.35250
 2.0295  29.15950
 2.0287  30.33060
 2.0280  30.00460
 2.0272  28.94800
 2.0264  29.25820
 2.0256  31.13370
 2.0248  30.70340
 2.0240  29.83650
 2.0232  29.51150
 2.0224  28.53670
 2.0216  27.92080
 2.0208  28.82570
 2.0200  30.04370
 2.0193  30.56440
 2.0185  30.04670
 2.0177  29.68540
 2.0169  28.91610
 2.0161  28.61350
 2.0153  29.66610
 2.0146  29.72510
 2.0138  30.11700
 2.0130  30.11360
 2.0122  29.08120
 2.0114  28.10500
 2.0107  28.42880
 2.0099  30.27590
 2.0091  30.84320
 2.0083  29.58660
 2.0075  29.53120
 2.0068  30.09290
 2.0060  30.09780
 2.0052  29.60810
 2.0044  29.82080
 2.0037  29.52210
 2.0029  28.69580
 2.0021  28.66070
 2.0013  29.63720
 2.0006  29.80270
 1.9998  30.06690
