Name: Triphylite Li(Mn,Fe)PO_4
Type: Mineral
Class: Phosphates
Subclass: 
Particle Size: 125-500um
Sample No.: P-4A
Owner: JPL
Wavelength range: IR
Origin: USA, New Hampshire, North Graton, Palermo Mine
Collected by Burminco
Description: 





Measurement: Hemispherical reflectance
First Column: X
Second Column: Y
X Units:  Wavelength (micrometers)
Y Units:  Reflectance (percent)
First X Value: 15.3853
Last X Value: 2.00032
Number of X Values: 2256
Additional information: p04aa.txt
 
15.3853	13.9521
15.3397	12.1254
15.2945	9.55497
15.2495	6.73778
15.2048	4.26872
15.1603	2.70889
15.1161	2.08975
15.0722	1.72169
15.0285	1.35853
14.9851	1.14411
14.9419	1.21739
14.8989	1.20058
14.8563	1.26655
14.8138	1.18114
14.7716	1.13045
14.7296	1.31767
14.6879	1.40648
14.6464	1.33828
14.6052	1.47587
14.5641	1.63032
14.5233	1.70471
14.4828	1.55099
14.4424	1.54987
14.4023	1.77015
14.3624	1.71363
14.3227	1.92502
14.2833	2.19858
14.244	1.94757
14.205	1.77922
14.1662	1.7816
14.1276	1.84947
14.0892	2.13914
14.051	2.40531
14.0131	2.32171
13.9753	2.27997
13.9377	2.22468
13.9004	2.35884
13.8632	2.39133
13.8262	2.46293
13.7895	2.64131
13.7529	2.8392
13.7165	3.05667
13.6803	2.96792
13.6443	2.89239
13.6085	2.79504
13.5729	2.6917
13.5374	2.69306
13.5022	2.7477
13.4671	2.88447
13.4322	3.15054
13.3975	3.26505
13.363	3.1014
13.3286	3.07097
13.2944	3.21131
13.2604	3.27194
13.2266	3.32181
13.193	3.2788
13.1595	3.35916
13.1262	3.52865
13.093	3.47577
13.06	3.45311
13.0272	3.45262
12.9946	3.52136
12.9621	3.74066
12.9298	3.75184
12.8976	3.64989
12.8656	3.75948
12.8337	3.83205
12.8021	3.86345
12.7705	3.86038
12.7391	3.79012
12.7079	3.70697
12.6769	3.74148
12.6459	3.76437
12.6152	3.94551
12.5845	4.11229
12.5541	4.13204
12.5238	4.1652
12.4936	4.27978
12.4635	4.29326
12.4337	4.13658
12.4039	4.17902
12.3743	4.40647
12.3448	4.4616
12.3155	4.47541
12.2863	4.57458
12.2573	4.59775
12.2284	4.57893
12.1996	4.60445
12.171	4.65245
12.1425	4.72556
12.1141	4.72206
12.0859	4.64544
12.0578	4.71303
12.0298	4.86639
12.0019	4.89955
11.9742	4.82866
11.9466	4.8408
11.9192	4.96982
11.8918	4.92737
11.8646	4.88996
11.8375	5.0739
11.8106	5.25322
11.7837	5.21739
11.757	5.13233
11.7304	5.24622
11.7039	5.47532
11.6776	5.58337
11.6513	5.52304
11.6252	5.43665
11.5992	5.49611
11.5733	5.80283
11.5475	5.84716
11.5219	5.70107
11.4963	5.75148
11.4709	5.90624
11.4455	6.08113
11.4203	6.203
11.3952	6.21387
11.3702	6.35173
11.3454	6.41941
11.3206	6.38821
11.2959	6.41858
11.2714	6.59719
11.2469	6.77067
11.2226	6.79758
11.1983	6.85042
11.1742	6.89912
11.1502	7.05747
11.1263	7.12462
11.1024	7.22629
11.0787	7.52826
11.0551	7.79664
11.0316	8.03764
11.0081	8.26478
10.9848	8.32891
10.9616	8.48218
10.9385	8.73548
10.9154	8.92901
10.8925	9.20936
10.8697	9.6075
10.8469	9.86699
10.8243	10.092
10.8017	10.4728
10.7793	10.934
10.7569	11.468
10.7346	12.0603
10.7125	12.6201
10.6904	13.0592
10.6684	13.4223
10.6465	13.7909
10.6247	13.9782
10.6029	14.0535
10.5813	14.0644
10.5597	14.0989
10.5383	14.3017
10.5169	14.7187
10.4956	15.213
10.4744	15.4732
10.4533	15.7294
10.4323	16.0007
10.4113	16.191
10.3904	16.4919
10.3697	16.8344
10.349	16.9757
10.3284	17.0694
10.3078	17.3189
10.2874	17.5235
10.267	17.6357
10.2467	17.7621
10.2265	17.8814
10.2064	18.0083
10.1863	18.1455
10.1663	18.3639
10.1464	18.6657
10.1266	19.0398
10.1069	19.3488
10.0872	19.802
10.0676	20.3777
10.0481	20.7954
10.0287	21.2204
10.0093	21.706
9.99005	22.1039
9.97084	22.4868
9.95169	22.7056
9.93263	22.9338
9.91364	23.2315
9.89472	23.5721
9.87587	23.897
9.8571	24.127
9.83839	24.4747
9.81976	24.9521
9.80119	25.4611
9.78271	26.0603
9.76428	26.7677
9.74592	27.5741
9.72764	28.4148
9.70943	29.2401
9.69128	30.0096
9.6732	30.8241
9.65518	31.5677
9.63724	32.1922
9.61935	32.9467
9.60155	33.6228
9.5838	34.1265
9.56611	34.6518
9.5485	35.1176
9.53094	35.4044
9.51345	35.5385
9.49604	35.5855
9.47867	35.6331
9.46137	35.555
9.44414	35.1617
9.42697	34.4821
9.40986	33.718
9.39281	32.785
9.37583	31.6644
9.35891	30.5439
9.34204	29.6181
9.32524	28.7072
9.3085	27.8487
9.29182	27.0683
9.27519	26.2104
9.25863	24.9471
9.24213	23.4596
9.22568	21.5594
9.2093	18.7712
9.19297	15.2524
9.17669	13.0517
9.16048	13.7715
9.14433	16.6084
9.12823	19.52
9.11218	21.5642
9.0962	22.8586
9.08027	23.5601
9.06439	23.7626
9.04858	23.7012
9.03281	23.556
9.0171	23.3367
9.00145	23.0357
8.98585	22.5296
8.9703	21.7312
8.9548	20.3304
8.93937	18.5905
8.92398	16.7475
8.90865	15.3479
8.89337	14.9462
8.87814	15.0022
8.86296	15.5552
8.84784	16.1863
8.83277	16.3594
8.81774	16.4224
8.80277	16.3121
8.78786	15.8165
8.77298	15.1501
8.75816	14.5268
8.7434	13.9722
8.72868	13.467
8.714	13.048
8.69938	12.8803
8.68481	12.8969
8.67029	12.9654
8.65581	12.9296
8.64139	12.8843
8.62701	12.925
8.61268	12.8319
8.5984	12.4437
8.58416	11.7077
8.56997	10.6689
8.55583	9.27079
8.54174	7.54742
8.52769	6.08908
8.51368	4.95148
8.49973	3.83325
8.48582	3.02649
8.47195	2.48711
8.45813	1.73636
8.44436	1.21905
8.43062	1.03354
8.41693	0.877456
8.4033	0.746419
8.3897	0.632668
8.37614	0.569799
8.36264	0.577
8.34917	0.503091
8.33574	0.4818
8.32236	0.397171
8.30903	0.292279
8.29573	0.290304
8.28248	0.303377
8.26927	0.372053
8.2561	0.391381
8.24298	0.319207
8.2299	0.375615
8.21685	0.336228
8.20385	0.358504
8.19089	0.378132
8.17797	0.37054
8.16509	0.468206
8.15225	0.489568
8.13946	0.419613
8.1267	0.355784
8.11398	0.339735
8.10131	0.394426
8.08867	0.457712
8.07606	0.424086
8.0635	0.473786
8.05099	0.583288
8.0385	0.586015
8.02606	0.609133
8.01366	0.680209
8.00129	0.722581
7.98896	0.697607
7.97667	0.697706
7.96442	0.672263
7.9522	0.692907
7.94002	0.712066
7.92788	0.678439
7.91578	0.672597
7.90371	0.69394
7.89168	0.788953
7.87969	0.77282
7.86773	0.71099
7.85581	0.74576
7.84392	0.776152
7.83207	0.782066
7.82026	0.870477
7.80849	0.936934
7.79674	0.95113
7.78503	0.977912
7.77337	0.943348
7.76173	0.830229
7.75012	0.903845
7.73856	1.05668
7.72703	1.05038
7.71553	1.10229
7.70406	1.0682
7.69263	1.0058
7.68123	1.04995
7.66987	1.10269
7.65855	1.26131
7.64725	1.34267
7.63598	1.23568
7.62475	1.20558
7.61356	1.31018
7.60239	1.37743
7.59126	1.37441
7.58017	1.40428
7.5691	1.39057
7.55806	1.43073
7.54707	1.47259
7.5361	1.49008
7.52516	1.44522
7.51425	1.41337
7.50338	1.52557
7.49253	1.60992
7.48172	1.56119
7.47094	1.56678
7.46019	1.6088
7.44947	1.60649
7.43879	1.55068
7.42813	1.50431
7.4175	1.56698
7.4069	1.65064
7.39634	1.61914
7.3858	1.57713
7.37529	1.68186
7.36482	1.66813
7.35437	1.63821
7.34396	1.72397
7.33357	1.66393
7.32321	1.64196
7.31288	1.67622
7.30258	1.65779
7.29231	1.68835
7.28207	1.77743
7.27185	1.75488
7.26167	1.72347
7.25152	1.69356
7.24139	1.72929
7.23129	1.73805
7.22122	1.58602
7.21117	1.54692
7.20116	1.70882
7.19117	1.75778
7.18121	1.77918
7.17128	1.89792
7.16137	1.99147
7.1515	2.00208
7.14164	1.88883
7.13182	1.84557
7.12203	1.87513
7.11225	1.78977
7.10251	1.75454
7.0928	1.8308
7.08311	1.88092
7.07344	1.88169
7.06381	1.87804
7.0542	1.87657
7.04461	1.8845
7.03506	1.82641
7.02552	1.84997
7.01601	1.94469
7.00653	1.94174
6.99708	1.89241
6.98765	1.79615
6.97824	1.76417
6.96886	1.85206
6.95951	1.97074
6.95018	2.0014
6.94087	1.98473
6.9316	1.9743
6.92234	1.954
6.91311	2.00052
6.90391	1.94318
6.89473	1.82213
6.88557	1.92783
6.87644	2.04741
6.86733	2.17335
6.85824	2.20008
6.84918	2.04847
6.84015	1.99368
6.83114	2.05559
6.82215	2.06256
6.81319	2.04482
6.80424	2.04839
6.79532	2.05254
6.78643	2.13383
6.77756	2.14738
6.76871	2.15446
6.75989	2.11787
6.75109	2.07067
6.74231	2.08738
6.73355	2.10376
6.72482	2.11379
6.71611	2.13322
6.70742	2.14343
6.69875	2.12214
6.69011	2.02413
6.68149	2.03362
6.67289	2.11715
6.66431	2.08075
6.65576	2.03915
6.64722	2.18021
6.63871	2.2554
6.63022	2.15509
6.62175	2.14379
6.61331	2.15453
6.60488	2.18189
6.59648	2.19707
6.5881	2.17019
6.57974	2.22821
6.5714	2.25027
6.56308	2.17457
6.55478	2.14468
6.54651	2.18526
6.53825	2.19552
6.53001	2.13736
6.5218	2.17975
6.51361	2.1918
6.50544	2.24481
6.49729	2.31365
6.48915	2.36158
6.48104	2.39972
6.47295	2.32477
6.46488	2.1768
6.45683	2.18729
6.4488	2.23915
6.44079	2.28293
6.4328	2.38282
6.42482	2.48688
6.41687	2.67129
6.40894	2.64345
6.40103	2.49776
6.39314	2.41201
6.38526	2.37828
6.37741	2.3792
6.36957	2.3276
6.36176	2.25891
6.35396	2.31335
6.34618	2.35365
6.33843	2.2852
6.33069	2.26401
6.32297	2.28445
6.31527	2.28745
6.30758	2.31788
6.29992	2.33064
6.29227	2.31411
6.28465	2.29282
6.27704	2.33369
6.26945	2.31753
6.26188	2.37071
6.25432	2.37161
6.24679	2.24611
6.23927	2.24468
6.23177	2.2763
6.22429	2.32256
6.21683	2.35975
6.20938	2.27372
6.20195	2.23613
6.19454	2.32964
6.18715	2.44247
6.17978	2.39174
6.17242	2.30046
6.16508	2.33805
6.15776	2.41183
6.15045	2.4476
6.14317	2.38418
6.1359	2.31325
6.12864	2.29006
6.12141	2.35577
6.11419	2.39345
6.10699	2.34133
6.0998	2.37233
6.09263	2.38973
6.08549	2.36677
6.07835	2.38751
6.07123	2.38871
6.06413	2.28451
6.05705	2.41187
6.04998	2.63034
6.04293	2.59409
6.0359	2.39466
6.02888	2.36389
6.02187	2.40878
6.01489	2.35019
6.00792	2.34448
6.00096	2.3926
5.99403	2.43515
5.98711	2.44373
5.9802	2.45939
5.97331	2.51202
5.96644	2.46437
5.95958	2.35526
5.95274	2.39557
5.94591	2.5266
5.9391	2.74367
5.9323	2.63853
5.92552	2.44555
5.91876	2.46234
5.91201	2.44965
5.90528	2.44404
5.89856	2.57539
5.89186	2.63371
5.88517	2.6288
5.8785	2.50262
5.87184	2.35925
5.8652	2.44404
5.85857	2.4287
5.85196	2.35789
5.84536	2.43138
5.83878	2.44418
5.83221	2.42792
5.82566	2.49494
5.81912	2.47165
5.81259	2.40643
5.80608	2.40824
5.79959	2.42622
5.79311	2.45275
5.78665	2.48318
5.78019	2.41343
5.77376	2.48036
5.76734	2.64206
5.76093	2.55425
5.75453	2.48514
5.74815	2.42892
5.74179	2.37881
5.73543	2.51787
5.7291	2.53669
5.72277	2.50061
5.71646	2.58509
5.71017	2.59473
5.70389	2.51226
5.69762	2.47902
5.69136	2.47738
5.68513	2.46306
5.6789	2.46085
5.67268	2.46291
5.66648	2.43956
5.6603	2.53675
5.65413	2.64368
5.64797	2.61244
5.64182	2.58055
5.63569	2.52896
5.62957	2.51533
5.62347	2.53556
5.61737	2.46365
5.61129	2.42324
5.60522	2.49724
5.59917	2.47782
5.59313	2.46959
5.5871	2.55088
5.58109	2.58418
5.57509	2.57586
5.5691	2.56034
5.56312	2.51202
5.55716	2.51703
5.55121	2.54183
5.54528	2.52695
5.53935	2.54152
5.53344	2.54554
5.52754	2.58874
5.52166	2.60433
5.51578	2.63912
5.50992	2.61937
5.50407	2.5393
5.49823	2.55501
5.49241	2.6152
5.4866	2.56999
5.4808	2.58397
5.47501	2.57623
5.46923	2.59626
5.46347	2.64456
5.45772	2.6323
5.45198	2.65576
5.44625	2.63663
5.44054	2.59766
5.43484	2.5794
5.42914	2.56441
5.42347	2.57181
5.4178	2.57205
5.41214	2.56733
5.4065	2.54465
5.40087	2.584
5.39525	2.62112
5.38964	2.65808
5.38404	2.68992
5.37846	2.62116
5.37288	2.55506
5.36732	2.54516
5.36177	2.56036
5.35623	2.64046
5.35071	2.67834
5.34519	2.65334
5.33968	2.62803
5.33419	2.60836
5.32871	2.58878
5.32324	2.56664
5.31778	2.51517
5.31233	2.52073
5.30689	2.59758
5.30147	2.55783
5.29605	2.51335
5.29065	2.50038
5.28525	2.43837
5.27987	2.47278
5.2745	2.48267
5.26914	2.48037
5.26379	2.48024
5.25845	2.51156
5.25312	2.5731
5.24781	2.58259
5.2425	2.54969
5.23721	2.52379
5.23192	2.50039
5.22665	2.46232
5.22138	2.45679
5.21613	2.44631
5.21089	2.39067
5.20566	2.35399
5.20044	2.37461
5.19522	2.41953
5.19002	2.3908
5.18483	2.34103
5.17965	2.38038
5.17448	2.41544
5.16933	2.44193
5.16418	2.39388
5.15904	2.35333
5.15391	2.37615
5.14879	2.43383
5.14368	2.41774
5.13859	2.44139
5.1335	2.52506
5.12842	2.50881
5.12335	2.46777
5.1183	2.42519
5.11325	2.46981
5.10821	2.56346
5.10318	2.5737
5.09817	2.45904
5.09316	2.38827
5.08816	2.41525
5.08317	2.45779
5.07819	2.47349
5.07322	2.39874
5.06826	2.40973
5.06331	2.46972
5.05837	2.454
5.05344	2.5306
5.04852	2.57906
5.04361	2.5348
5.03871	2.4376
5.03382	2.40691
5.02894	2.48918
5.02406	2.55634
5.0192	2.57203
5.01435	2.57584
5.0095	2.51954
5.00467	2.5126
4.99984	2.57686
4.99502	2.61883
4.99021	2.61692
4.98542	2.55638
4.98063	2.58134
4.97585	2.71113
4.97108	2.68213
4.96632	2.59245
4.96156	2.57542
4.95682	2.58186
4.95209	2.58863
4.94736	2.56314
4.94264	2.5212
4.93794	2.54794
4.93324	2.6082
4.92855	2.61208
4.92387	2.54123
4.9192	2.51497
4.91453	2.56087
4.90988	2.59023
4.90524	2.58983
4.9006	2.65492
4.89597	2.67484
4.89135	2.63144
4.88674	2.51418
4.88214	2.50626
4.87755	2.54599
4.87296	2.59381
4.86839	2.69658
4.86382	2.68854
4.85926	2.64957
4.85471	2.71307
4.85017	2.69789
4.84564	2.66143
4.84111	2.67537
4.8366	2.68549
4.83209	2.6278
4.82759	2.62908
4.8231	2.68361
4.81862	2.70395
4.81415	2.63146
4.80968	2.59514
4.80522	2.65301
4.80077	2.69563
4.79633	2.72181
4.7919	2.74387
4.78747	2.7659
4.78306	2.82188
4.77865	2.85197
4.77425	2.80903
4.76986	2.80435
4.76547	2.82279
4.7611	2.88708
4.75673	2.91925
4.75237	2.92056
4.74802	2.92539
4.74367	2.90634
4.73934	2.91973
4.73501	2.94768
4.73069	2.95087
4.72638	2.98391
4.72207	2.99086
4.71777	2.95348
4.71348	2.96994
4.7092	3.03718
4.70493	3.05129
4.70066	2.96225
4.69641	2.9413
4.69216	2.95293
4.68791	2.99173
4.68368	2.98338
4.67945	2.9746
4.67523	3.04509
4.67102	3.04382
4.66682	3.01266
4.66262	2.91187
4.65843	2.83621
4.65425	2.86856
4.65007	2.94013
4.64591	3.02896
4.64175	3.02643
4.6376	3.02529
4.63345	3.03467
4.62932	3.06353
4.62519	3.083
4.62106	3.119
4.61695	3.21911
4.61284	3.21171
4.60874	3.16509
4.60465	3.21912
4.60056	3.22282
4.59648	3.25468
4.59241	3.3313
4.58835	3.38483
4.58429	3.37721
4.58024	3.29565
4.5762	3.28561
4.57216	3.36418
4.56814	3.40216
4.56411	3.41102
4.5601	3.36747
4.55609	3.38717
4.55209	3.37343
4.5481	3.37693
4.54411	3.34389
4.54013	3.35333
4.53616	3.41258
4.5322	3.46498
4.52824	3.48237
4.52429	3.53156
4.52034	3.45309
4.51641	3.39998
4.51247	3.47117
4.50855	3.44533
4.50463	3.42662
4.50072	3.47577
4.49682	3.46945
4.49292	3.48233
4.48903	3.59458
4.48515	3.60285
4.48127	3.53284
4.4774	3.52484
4.47354	3.56097
4.46968	3.55815
4.46584	3.53567
4.46199	3.59604
4.45815	3.7195
4.45432	3.71092
4.4505	3.69702
4.44668	3.77075
4.44287	3.82308
4.43907	3.87716
4.43527	3.86677
4.43148	3.87201
4.4277	3.87596
4.42392	3.94661
4.42015	4.04798
4.41638	4.08193
4.41262	4.13938
4.40887	4.20676
4.40513	4.18988
4.40139	4.22645
4.39765	4.2787
4.39393	4.35333
4.39021	4.36823
4.38649	4.37561
4.38278	4.41992
4.37908	4.40662
4.37539	4.39845
4.3717	4.4454
4.36801	4.58361
4.36434	4.59508
4.36067	4.5559
4.357	4.5713
4.35335	4.5847
4.34969	4.54229
4.34605	4.55076
4.34241	4.58198
4.33877	4.56991
4.33514	4.55981
4.33152	4.64609
4.32791	4.70139
4.3243	4.61424
4.32069	4.55044
4.3171	4.66776
4.31351	4.76255
4.30992	4.71352
4.30634	4.71594
4.30277	4.71235
4.2992	4.63804
4.29564	4.49137
4.29208	4.4648
4.28853	4.63239
4.28499	4.66123
4.28145	4.61823
4.27792	4.58322
4.27439	4.58186
4.27087	4.54781
4.26735	4.55076
4.26384	4.58844
4.26034	4.69964
4.25684	4.7927
4.25335	4.82772
4.24986	4.86228
4.24638	4.89481
4.24291	4.88722
4.23944	4.95662
4.23598	5.05341
4.23252	5.18645
4.22906	5.23192
4.22562	5.19072
4.22218	5.28875
4.21874	5.35838
4.21531	5.40671
4.21189	5.53829
4.20847	5.59
4.20506	5.61018
4.20165	5.70242
4.19825	5.74053
4.19485	5.74271
4.19146	5.82118
4.18807	5.83848
4.18469	5.79865
4.18132	5.77607
4.17795	5.82627
4.17458	5.85673
4.17123	5.93118
4.16787	5.96473
4.16453	5.95478
4.16118	6.00848
4.15785	6.11912
4.15451	6.1989
4.15119	6.15873
4.14787	6.1456
4.14455	6.15735
4.14124	6.17508
4.13794	6.20109
4.13464	6.20962
4.13134	6.26164
4.12805	6.33785
4.12477	6.32921
4.12149	6.31435
4.11822	6.33416
4.11495	6.44333
4.11168	6.47423
4.10843	6.46636
4.10517	6.50736
4.10192	6.57514
4.09868	6.64371
4.09545	6.72335
4.09221	6.71417
4.08899	6.68692
4.08576	6.76326
4.08255	6.7969
4.07933	6.67557
4.07613	6.7251
4.07292	6.83644
4.06973	6.86811
4.06654	6.82871
4.06335	6.87611
4.06017	7.01325
4.05699	7.0427
4.05382	6.98071
4.05065	7.00023
4.04749	7.04783
4.04433	7.09009
4.04118	7.11474
4.03803	7.14602
4.03489	7.20466
4.03175	7.24303
4.02862	7.20161
4.02549	7.20677
4.02237	7.27265
4.01925	7.35758
4.01614	7.42951
4.01303	7.43395
4.00993	7.48717
4.00683	7.55525
4.00373	7.57632
4.00064	7.64884
3.99756	7.74925
3.99448	7.70927
3.9914	7.75054
3.98833	7.79395
3.98527	7.80931
3.98221	7.82685
3.97915	7.81975
3.9761	7.86672
3.97305	7.96649
3.97001	7.98146
3.96697	8.07609
3.96394	8.19083
3.96091	8.26462
3.95789	8.24804
3.95487	8.26804
3.95186	8.24149
3.94885	8.27672
3.94584	8.38479
3.94284	8.40392
3.93984	8.41246
3.93685	8.42196
3.93386	8.37729
3.93088	8.42042
3.9279	8.53318
3.92493	8.6152
3.92196	8.64034
3.919	8.85799
3.91604	8.9017
3.91308	8.73777
3.91013	8.68374
3.90718	8.77103
3.90424	8.9221
3.9013	9.04911
3.89837	9.04923
3.89544	9.05738
3.89252	9.06902
3.8896	9.05167
3.88668	9.16626
3.88377	9.3228
3.88086	9.31924
3.87796	9.29139
3.87506	9.27996
3.87217	9.33059
3.86928	9.47761
3.86639	9.54379
3.86351	9.54092
3.86064	9.49766
3.85776	9.5409
3.8549	9.58138
3.85203	9.6481
3.84917	9.72485
3.84631	9.7675
3.84346	9.8185
3.84062	9.88396
3.83777	9.91784
3.83494	9.91726
3.8321	9.97787
3.82927	9.99835
3.82644	10.0138
3.82362	10.0558
3.82081	10.1854
3.81799	10.2793
3.81518	10.3517
3.81238	10.4269
3.80958	10.4674
3.80678	10.5122
3.80399	10.5332
3.8012	10.5487
3.79841	10.5359
3.79563	10.5435
3.79286	10.6649
3.79008	10.7687
3.78731	10.8927
3.78455	10.9621
3.78179	10.9893
3.77903	11.026
3.77628	11.0671
3.77353	11.0291
3.77079	11.0591
3.76805	11.1578
3.76531	11.2239
3.76258	11.3161
3.75985	11.3036
3.75713	11.2488
3.7544	11.2874
3.75169	11.4373
3.74898	11.5123
3.74627	11.5385
3.74356	11.6316
3.74086	11.7003
3.73816	11.7452
3.73547	11.8014
3.73278	11.802
3.7301	11.8452
3.72741	11.9199
3.72474	12.0168
3.72206	12.1339
3.71939	12.149
3.71673	12.0858
3.71406	12.119
3.71141	12.2324
3.70875	12.3035
3.7061	12.375
3.70345	12.3829
3.70081	12.4426
3.69817	12.5754
3.69553	12.654
3.6929	12.6974
3.69027	12.7688
3.68765	12.8525
3.68503	12.9109
3.68241	12.8748
3.6798	12.8819
3.67719	12.9735
3.67458	13.0929
3.67198	13.129
3.66938	13.1189
3.66678	13.1674
3.66419	13.2511
3.66161	13.302
3.65902	13.3371
3.65644	13.4576
3.65387	13.5054
3.65129	13.4804
3.64872	13.5884
3.64616	13.5985
3.64359	13.6321
3.64103	13.8293
3.63848	13.9013
3.63593	13.8694
3.63338	13.8845
3.63084	13.9895
3.6283	14.1255
3.62576	14.1181
3.62322	14.0685
3.62069	14.0063
3.61817	14.0949
3.61564	14.2812
3.61312	14.3202
3.61061	14.4233
3.6081	14.5065
3.60559	14.5904
3.60308	14.6994
3.60058	14.7161
3.59808	14.7865
3.59558	14.8541
3.59309	14.8534
3.59061	14.9743
3.58812	15.0562
3.58564	14.9738
3.58316	14.927
3.58069	15.0331
3.57822	15.1649
3.57575	15.2555
3.57328	15.3073
3.57082	15.4199
3.56836	15.5276
3.56591	15.5007
3.56346	15.4644
3.56101	15.4246
3.55857	15.4145
3.55613	15.4204
3.55369	15.4777
3.55126	15.6362
3.54883	15.7042
3.5464	15.6717
3.54397	15.5885
3.54155	15.6073
3.53914	15.7093
3.53672	15.7222
3.53431	15.7254
3.5319	15.7642
3.5295	15.8784
3.5271	15.9526
3.5247	16.0133
3.52231	16.0422
3.51991	16.0692
3.51753	16.1017
3.51514	16.1278
3.51276	16.1638
3.51038	16.2303
3.50801	16.2864
3.50563	16.3766
3.50327	16.4684
3.5009	16.4759
3.49854	16.5162
3.49618	16.5287
3.49382	16.5906
3.49147	16.6583
3.48912	16.6325
3.48677	16.6373
3.48443	16.7049
3.48209	16.8158
3.47975	16.8634
3.47742	16.9233
3.47509	17.0164
3.47276	17.0696
3.47044	17.1853
3.46812	17.263
3.4658	17.2327
3.46348	17.2904
3.46117	17.3516
3.45886	17.4594
3.45656	17.4878
3.45425	17.533
3.45195	17.5775
3.44966	17.5737
3.44736	17.621
3.44507	17.6581
3.44279	17.7495
3.4405	17.926
3.43822	18.0025
3.43594	17.9068
3.43367	17.9149
3.43139	17.9687
3.42912	17.9727
3.42686	18.0176
3.42459	18.0567
3.42233	18.1165
3.42007	18.2001
3.41782	18.304
3.41557	18.3576
3.41332	18.2949
3.41108	18.3079
3.40883	18.384
3.40659	18.445
3.40435	18.5539
3.40212	18.5769
3.39989	18.5931
3.39766	18.6477
3.39544	18.7188
3.39322	18.6905
3.391	18.6537
3.38878	18.7416
3.38657	18.8112
3.38436	18.7329
3.38215	18.7687
3.37994	18.8899
3.37774	18.9127
3.37554	18.9971
3.37335	19.0127
3.37115	18.8955
3.36896	18.8796
3.36678	18.9293
3.36459	19.0528
3.36241	19.1329
3.36023	19.1811
3.35805	19.1426
3.35588	19.1108
3.35371	19.1618
3.35154	19.1299
3.34938	19.1151
3.34721	19.1963
3.34505	19.2685
3.3429	19.33
3.34074	19.2504
3.33859	19.2468
3.33644	19.2748
3.3343	19.2012
3.33215	19.2176
3.33001	19.2293
3.32788	19.2954
3.32574	19.4129
3.32361	19.4648
3.32148	19.4673
3.31936	19.4735
3.31723	19.4573
3.31511	19.4537
3.31299	19.4623
3.31088	19.495
3.30876	19.3993
3.30665	19.4134
3.30455	19.5574
3.30244	19.58
3.30034	19.541
3.29824	19.4689
3.29614	19.4224
3.29405	19.4668
3.29196	19.4359
3.28987	19.4062
3.28778	19.3749
3.2857	19.3986
3.28362	19.398
3.28154	19.3233
3.27946	19.4066
3.27739	19.5017
3.27532	19.5118
3.27325	19.4491
3.27119	19.4146
3.26913	19.414
3.26707	19.3298
3.26501	19.2365
3.26295	19.2778
3.2609	19.3258
3.25885	19.328
3.2568	19.3354
3.25476	19.2899
3.25272	19.1938
3.25068	19.2654
3.24864	19.2651
3.24661	19.1715
3.24458	19.1393
3.24255	19.0734
3.24052	19.0646
3.2385	18.9922
3.23648	18.8628
3.23446	18.9572
3.23244	18.9746
3.23043	18.8387
3.22841	18.763
3.2264	18.7762
3.2244	18.802
3.22239	18.8428
3.22039	18.7161
3.21839	18.5344
3.2164	18.5227
3.2144	18.4951
3.21241	18.408
3.21042	18.4016
3.20844	18.3579
3.20645	18.351
3.20447	18.3673
3.20249	18.3247
3.20051	18.2534
3.19854	18.135
3.19657	18.0804
3.1946	18.094
3.19263	18.0503
3.19067	17.9457
3.1887	17.9107
3.18674	17.8742
3.18479	17.7938
3.18283	17.7698
3.18088	17.7579
3.17893	17.6737
3.17698	17.5882
3.17504	17.5389
3.17309	17.5094
3.17115	17.4539
3.16921	17.422
3.16728	17.344
3.16534	17.1837
3.16341	17.1086
3.16148	17.1209
3.15956	17.1259
3.15763	17.0844
3.15571	17.0263
3.15379	16.9858
3.15187	16.9759
3.14996	16.8472
3.14805	16.7574
3.14614	16.699
3.14423	16.5955
3.14232	16.5968
3.14042	16.6014
3.13852	16.529
3.13662	16.4781
3.13472	16.3993
3.13283	16.3115
3.13094	16.334
3.12905	16.2719
3.12716	16.1764
3.12528	16.0798
3.12339	16.0171
3.12151	15.9764
3.11964	16.0055
3.11776	16.0657
3.11589	15.9746
3.11401	15.8376
3.11214	15.8206
3.11028	15.899
3.10841	15.8861
3.10655	15.8106
3.10469	15.7174
3.10283	15.5804
3.10098	15.5058
3.09912	15.4885
3.09727	15.5042
3.09542	15.5043
3.09358	15.4803
3.09173	15.439
3.08989	15.4108
3.08805	15.4383
3.08621	15.491
3.08437	15.5008
3.08254	15.3502
3.08071	15.2545
3.07888	15.3456
3.07705	15.3924
3.07523	15.3478
3.0734	15.215
3.07158	15.077
3.06977	15.0541
3.06795	15.1077
3.06613	15.1233
3.06432	15.0413
3.06251	15.0171
3.0607	15.0529
3.0589	15.0439
3.0571	15.0124
3.05529	14.9969
3.05349	15.0197
3.0517	15.0557
3.0499	15.0972
3.04811	14.9439
3.04632	14.8479
3.04453	14.9004
3.04274	14.8832
3.04096	15.0463
3.03918	15.1779
3.0374	14.9131
3.03562	14.7914
3.03384	14.8486
3.03207	14.8278
3.03029	14.8605
3.02852	14.9074
3.02676	14.8579
3.02499	14.9087
3.02323	15.0127
3.02146	14.9696
3.0197	14.7262
3.01795	14.7336
3.01619	14.8221
3.01444	14.8689
3.01269	14.8277
3.01094	14.7643
3.00919	14.7809
3.00744	14.8086
3.0057	14.6751
3.00396	14.5243
3.00222	14.501
3.00048	14.4835
2.99875	14.5661
2.99701	14.7196
2.99528	14.7824
2.99355	14.7089
2.99183	14.5027
2.9901	14.4344
2.98838	14.5461
2.98666	14.6932
2.98494	14.5944
2.98322	14.551
2.9815	14.4725
2.97979	14.5453
2.97808	14.707
2.97637	14.7955
2.97466	14.7469
2.97295	14.4942
2.97125	14.3153
2.96955	14.4263
2.96785	14.5267
2.96615	14.429
2.96446	14.3036
2.96276	14.4063
2.96107	14.5722
2.95938	14.4731
2.95769	14.5542
2.95601	14.6773
2.95432	14.6339
2.95264	14.5071
2.95096	14.284
2.94928	14.2559
2.9476	14.4418
2.94593	14.5709
2.94425	14.6375
2.94258	14.6225
2.94092	14.6864
2.93925	14.6311
2.93758	14.5953
2.93592	14.5478
2.93426	14.4698
2.9326	14.5709
2.93094	14.728
2.92928	14.8612
2.92763	14.8841
2.92598	14.8227
2.92433	14.795
2.92268	14.8891
2.92103	15.0534
2.91939	15.045
2.91775	15.0134
2.9161	14.9827
2.91447	15.0396
2.91283	15.0644
2.91119	15.1161
2.90956	15.2191
2.90793	15.2669
2.9063	15.2685
2.90467	15.4283
2.90304	15.5388
2.90142	15.533
2.89979	15.56
2.89817	15.7137
2.89656	15.731
2.89494	15.7822
2.89332	15.8525
2.89171	15.8457
2.8901	15.9352
2.88849	16.1594
2.88688	16.14
2.88527	16.155
2.88367	16.354
2.88206	16.4847
2.88046	16.5352
2.87886	16.5479
2.87727	16.655
2.87567	16.7582
2.87408	16.8737
2.87248	17.0551
2.87089	17.0602
2.8693	16.8786
2.86772	16.921
2.86613	17.1613
2.86455	17.3006
2.86297	17.3356
2.86139	17.3945
2.85981	17.5408
2.85823	17.6882
2.85666	17.7925
2.85508	17.9311
2.85351	18.1481
2.85194	18.3165
2.85038	18.5209
2.84881	18.5011
2.84724	18.451
2.84568	18.6284
2.84412	18.7495
2.84256	18.8407
2.841	18.9275
2.83945	19.0555
2.83789	19.2131
2.83634	19.3067
2.83479	19.329
2.83324	19.4643
2.83169	19.5871
2.83015	19.7182
2.82861	19.943
2.82706	20.172
2.82552	20.3448
2.82398	20.4298
2.82245	20.5995
2.82091	20.7359
2.81938	20.8644
2.81784	21.0591
2.81631	21.2815
2.81479	21.412
2.81326	21.4849
2.81173	21.6445
2.81021	21.8458
2.80869	22.0407
2.80716	22.265
2.80565	22.6077
2.80413	23.0738
2.80261	23.209
2.8011	22.957
2.79959	22.9585
2.79808	23.1704
2.79657	23.5813
2.79506	23.9116
2.79355	24.0868
2.79205	24.1794
2.79055	24.4475
2.78904	24.9847
2.78754	25.4708
2.78605	25.5241
2.78455	25.4733
2.78306	25.6595
2.78156	26.0347
2.78007	26.2332
2.77858	26.3313
2.77709	26.6
2.77561	26.8357
2.77412	27.1922
2.77264	27.7122
2.77116	27.9899
2.76968	28.1888
2.7682	28.5856
2.76672	28.8312
2.76524	28.9344
2.76377	29.5267
2.7623	29.8801
2.76083	29.6674
2.75936	29.8408
2.75789	30.4223
2.75642	31.5082
2.75496	31.9273
2.7535	31.4711
2.75203	31.6766
2.75057	32.1092
2.74912	32.3886
2.74766	32.6173
2.7462	32.8917
2.74475	33.3821
2.7433	34.076
2.74185	35.0674
2.7404	36.3109
2.73895	36.635
2.7375	36.0817
2.73606	36.5736
2.73462	37.3239
2.73318	37.391
2.73174	37.8185
2.7303	38.4534
2.72886	39.0645
2.72742	39.951
2.72599	41.3356
2.72456	42.6401
2.72313	42.8337
2.7217	43.9299
2.72027	45.2428
2.71884	44.6819
2.71742	44.7189
2.71599	44.9222
2.71457	45.432
2.71315	46.216
2.71173	47.835
2.71032	48.6755
2.7089	48.4474
2.70748	48.3057
2.70607	48.5325
2.70466	48.8084
2.70325	49.2463
2.70184	50.0466
2.70043	50.1757
2.69903	50.1682
2.69762	50.8028
2.69622	51.8514
2.69482	52.9978
2.69342	53.3212
2.69202	52.5817
2.69062	52.4917
2.68923	52.8862
2.68783	53.3727
2.68644	53.8165
2.68505	53.9895
2.68366	54.3158
2.68227	54.4088
2.68089	54.9185
2.6795	56.1093
2.67812	56.7363
2.67673	57.2936
2.67535	56.82
2.67397	56.3452
2.6726	56.654
2.67122	58.781
2.66984	59.2725
2.66847	58.132
2.6671	59.3319
2.66572	59.8409
2.66435	58.9068
2.66299	57.6486
2.66162	57.828
2.66025	58.24
2.65889	58.2493
2.65753	57.8325
2.65616	58.2598
2.65481	58.4413
2.65345	58.8507
2.65209	59.0458
2.65073	58.5196
2.64938	58.3296
2.64803	58.4428
2.64667	58.9693
2.64532	59.2782
2.64397	58.9936
2.64263	59.135
2.64128	59.0618
2.63994	58.9985
2.63859	59.101
2.63725	59.2883
2.63591	59.3815
2.63457	59.9337
2.63323	60.1288
2.6319	60.6115
2.63056	61.6948
2.62923	60.8408
2.62789	60.7261
2.62656	61.526
2.62523	60.7221
2.6239	60.2808
2.62258	60.4231
2.62125	61.7334
2.61993	62.1776
2.6186	61.6606
2.61728	62.6408
2.61596	62.2817
2.61464	61.2865
2.61332	61.427
2.61201	61.264
2.61069	61.4764
2.60938	61.8813
2.60807	62.1491
2.60675	62.9132
2.60544	63.6206
2.60414	63.0227
2.60283	62.4084
2.60152	62.2912
2.60022	62.035
2.59891	61.8539
2.59761	62.4073
2.59631	64.2167
2.59501	66.3721
2.59371	64.7901
2.59242	62.7228
2.59112	62.3108
2.58983	62.6913
2.58853	63.1564
2.58724	63.475
2.58595	63.1421
2.58466	63.8716
2.58338	64.0892
2.58209	63.3312
2.5808	63.2282
2.57952	62.7838
2.57824	63.1841
2.57695	63.7419
2.57567	63.4183
2.5744	63.7688
2.57312	64.1144
2.57184	63.2815
2.57057	63.6293
2.56929	63.9268
2.56802	63.4191
2.56675	63.2785
2.56548	63.7576
2.56421	64.3865
2.56294	64.6245
2.56168	64.7891
2.56041	64.2817
2.55915	63.5729
2.55789	63.4608
2.55662	63.5266
2.55536	63.5476
2.5541	63.8078
2.55285	64.1682
2.55159	64.129
2.55034	63.9327
2.54908	63.9177
2.54783	64.0988
2.54658	64.0222
2.54533	63.9895
2.54408	64.2446
2.54283	64.4263
2.54159	64.17
2.54034	63.9724
2.5391	63.9768
2.53785	64.2004
2.53661	64.4962
2.53537	64.4212
2.53413	64.4011
2.53289	64.4947
2.53166	64.4207
2.53042	64.4482
2.52919	64.4832
2.52795	64.4144
2.52672	64.4229
2.52549	64.4805
2.52426	64.5518
2.52303	64.6966
2.52181	64.7416
2.52058	64.8011
2.51936	64.8498
2.51813	64.9091
2.51691	64.9527
2.51569	64.964
2.51447	65.0415
2.51325	65.043
2.51203	64.9981
2.51082	65.0538
2.5096	65.2401
2.50839	65.3429
2.50717	65.2368
2.50596	65.2503
2.50475	65.2986
2.50354	65.3318
2.50233	65.4449
2.50113	65.7068
2.49992	65.832
2.49872	65.8118
2.49751	65.7902
2.49631	65.7844
2.49511	65.9003
2.49391	66.0219
2.49271	66.0231
2.49151	66.0598
2.49031	66.2204
2.48912	66.3704
2.48792	66.4367
2.48673	66.2839
2.48554	66.1472
2.48435	66.2616
2.48316	66.3842
2.48197	66.4123
2.48078	66.5206
2.4796	66.6243
2.47841	66.7373
2.47723	66.8442
2.47604	66.9008
2.47486	66.9855
2.47368	67.0189
2.4725	66.9551
2.47132	66.9253
2.47014	66.9596
2.46897	66.9862
2.46779	67.0834
2.46662	67.17
2.46545	67.2291
2.46427	67.4108
2.4631	67.5737
2.46193	67.4913
2.46077	67.5109
2.4596	67.667
2.45843	67.7788
2.45727	67.7575
2.4561	67.8374
2.45494	67.9385
2.45378	67.8028
2.45262	67.8314
2.45146	67.9654
2.4503	67.9111
2.44914	67.896
2.44799	67.9612
2.44683	68.1364
2.44568	68.2719
2.44452	68.2902
2.44337	68.4401
2.44222	68.5558
2.44107	68.5257
2.43992	68.5749
2.43877	68.5438
2.43763	68.4922
2.43648	68.6323
2.43534	68.777
2.43419	68.7057
2.43305	68.6178
2.43191	68.7169
2.43077	68.8028
2.42963	68.9206
2.42849	69.0728
2.42736	69.2479
2.42622	69.2484
2.42509	69.3014
2.42395	69.3523
2.42282	69.1999
2.42169	69.107
2.42056	69.1064
2.41943	69.2449
2.4183	69.3893
2.41717	69.5025
2.41605	69.5729
2.41492	69.6244
2.4138	69.479
2.41267	69.5635
2.41155	69.7259
2.41043	69.7246
2.40931	69.6935
2.40819	69.7054
2.40707	69.8056
2.40595	69.7928
2.40484	69.7601
2.40372	69.8453
2.40261	69.9936
2.4015	70.0706
2.40039	70.0885
2.39928	70.1545
2.39817	70.1848
2.39706	70.1248
2.39595	70.1228
2.39484	70.1192
2.39374	70.2099
2.39263	70.2188
2.39153	70.255
2.39043	70.387
2.38932	70.476
2.38822	70.5318
2.38712	70.679
2.38603	70.6337
2.38493	70.5072
2.38383	70.5529
2.38274	70.6927
2.38164	70.7436
2.38055	70.7784
2.37946	70.8121
2.37836	70.8351
2.37727	70.8727
2.37618	70.8943
2.3751	70.8949
2.37401	70.8946
2.37292	70.8667
2.37184	70.8665
2.37075	70.9426
2.36967	71.0284
2.36859	71.0741
2.3675	71.1616
2.36642	71.2065
2.36534	71.2799
2.36427	71.278
2.36319	71.2321
2.36211	71.2517
2.36104	71.2846
2.35996	71.3337
2.35889	71.3619
2.35781	71.3662
2.35674	71.4017
2.35567	71.5089
2.3546	71.5399
2.35353	71.5206
2.35247	71.5602
2.3514	71.5831
2.35033	71.6205
2.34927	71.6725
2.3482	71.6963
2.34714	71.7202
2.34608	71.7699
2.34502	71.7911
2.34396	71.8287
2.3429	71.8345
2.34184	71.8543
2.34078	71.9695
2.33973	72.0042
2.33867	71.9459
2.33762	71.8772
2.33656	71.8065
2.33551	71.9432
2.33446	71.9541
2.33341	71.9989
2.33236	72.0372
2.33131	72.0446
2.33026	72.1528
2.32922	72.1696
2.32817	72.1128
2.32712	72.2197
2.32608	72.2386
2.32504	72.1401
2.324	72.1332
2.32295	72.2173
2.32191	72.2385
2.32087	72.2899
2.31984	72.3295
2.3188	72.322
2.31776	72.336
2.31673	72.3578
2.31569	72.359
2.31466	72.3932
2.31362	72.4294
2.31259	72.4518
2.31156	72.4879
2.31053	72.3893
2.3095	72.3682
2.30847	72.5084
2.30745	72.6122
2.30642	72.5932
2.3054	72.4388
2.30437	72.4432
2.30335	72.4959
2.30232	72.5077
2.3013	72.5134
2.30028	72.5573
2.29926	72.5679
2.29824	72.5923
2.29722	72.5062
2.29621	72.4697
2.29519	72.5675
2.29417	72.5558
2.29316	72.4923
2.29215	72.4916
2.29113	72.5814
2.29012	72.6976
2.28911	72.788
2.2881	72.775
2.28709	72.6092
2.28608	72.4817
2.28507	72.5516
2.28407	72.6066
2.28306	72.5601
2.28206	72.5795
2.28105	72.6181
2.28005	72.614
2.27905	72.6466
2.27805	72.6891
2.27705	72.6869
2.27605	72.6381
2.27505	72.604
2.27405	72.4974
2.27305	72.5818
2.27206	72.6862
2.27106	72.5611
2.27007	72.5361
2.26907	72.5692
2.26808	72.4737
2.26709	72.465
2.2661	72.5301
2.26511	72.5398
2.26412	72.5545
2.26313	72.6496
2.26214	72.7975
2.26116	72.7513
2.26017	72.5956
2.25919	72.4783
2.2582	72.4928
2.25722	72.6749
2.25624	72.6509
2.25526	72.4594
2.25428	72.34
2.2533	72.3976
2.25232	72.5298
2.25134	72.5275
2.25036	72.6148
2.24939	72.5723
2.24841	72.4428
2.24744	72.4079
2.24646	72.395
2.24549	72.4234
2.24452	72.4814
2.24355	72.3916
2.24257	72.4105
2.24161	72.5503
2.24064	72.5392
2.23967	72.4319
2.2387	72.4386
2.23774	72.3989
2.23677	72.4214
2.23581	72.426
2.23484	72.3615
2.23388	72.3472
2.23292	72.3485
2.23196	72.3048
2.231	72.3131
2.23004	72.283
2.22908	72.2812
2.22812	72.2216
2.22716	72.2032
2.22621	72.2209
2.22525	72.0841
2.2243	72.0382
2.22334	72.1778
2.22239	72.2891
2.22144	72.2017
2.22049	72.0577
2.21953	72.0319
2.21859	72.1131
2.21764	72.176
2.21669	72.0807
2.21574	72.1405
2.21479	72.1579
2.21385	72.0072
2.2129	71.9685
2.21196	71.936
2.21102	71.9256
2.21007	72.0643
2.20913	71.8464
2.20819	71.7648
2.20725	71.8431
2.20631	71.9396
2.20537	71.9137
2.20444	71.8869
2.2035	71.8011
2.20256	71.7443
2.20163	71.7232
2.20069	71.7889
2.19976	71.8246
2.19883	71.7163
2.19789	71.6255
2.19696	71.5977
2.19603	71.4879
2.1951	71.4662
2.19417	71.3765
2.19325	71.4072
2.19232	71.5728
2.19139	71.634
2.19047	71.6189
2.18954	71.4375
2.18862	71.3507
2.18769	71.3344
2.18677	71.3759
2.18585	71.3875
2.18493	71.376
2.18401	71.2917
2.18309	71.098
2.18217	70.9792
2.18125	70.9471
2.18033	70.9783
2.17942	70.9407
2.1785	70.9397
2.17759	70.9684
2.17667	71.0105
2.17576	70.9236
2.17485	70.9924
2.17393	71.1787
2.17302	70.9883
2.17211	70.8303
2.1712	70.8136
2.17029	70.5993
2.16939	70.5643
2.16848	70.8034
2.16757	70.723
2.16667	70.4355
2.16576	70.4517
2.16486	70.5786
2.16395	70.5167
2.16305	70.4754
2.16215	70.4778
2.16125	70.2963
2.16035	70.2994
2.15945	70.1883
2.15855	70.0738
2.15765	70.1602
2.15675	70.2007
2.15586	70.0144
2.15496	69.9155
2.15406	69.9772
2.15317	69.9695
2.15228	69.8754
2.15138	69.8148
2.15049	69.7775
2.1496	69.7985
2.14871	69.7308
2.14782	69.5191
2.14693	69.3751
2.14604	69.4818
2.14515	69.562
2.14427	69.5224
2.14338	69.5458
2.14249	69.4662
2.14161	69.347
2.14072	69.3092
2.13984	69.3204
2.13896	69.2912
2.13808	69.2251
2.13719	69.1273
2.13631	69.0466
2.13543	69.0231
2.13455	68.986
2.13368	68.9166
2.1328	68.7859
2.13192	68.6871
2.13105	68.6045
2.13017	68.7181
2.1293	68.6388
2.12842	68.4919
2.12755	68.3607
2.12668	68.4339
2.1258	68.5327
2.12493	68.4361
2.12406	68.2526
2.12319	68.1364
2.12232	68.1499
2.12145	68.3008
2.12059	68.2666
2.11972	68.1455
2.11885	67.8775
2.11799	67.9908
2.11712	68.0954
2.11626	67.727
2.1154	67.4982
2.11453	67.5233
2.11367	67.497
2.11281	67.5789
2.11195	67.7504
2.11109	67.7188
2.11023	67.439
2.10937	67.3964
2.10851	67.3575
2.10766	67.1087
2.1068	66.967
2.10594	67.0509
2.10509	67.1135
2.10423	67.0171
2.10338	67.008
2.10253	66.9414
2.10168	66.8199
2.10082	66.8588
2.09997	66.6224
2.09912	66.4272
2.09827	66.4292
2.09742	66.5189
2.09658	66.5183
2.09573	66.4852
2.09488	66.4825
2.09404	66.6162
2.09319	66.4287
2.09235	66.1117
2.0915	66.1176
2.09066	65.9687
2.08982	65.6731
2.08897	65.6412
2.08813	65.7526
2.08729	65.6304
2.08645	65.7035
2.08561	65.6685
2.08477	65.6118
2.08394	65.5259
2.0831	65.4998
2.08226	65.3764
2.08143	65.432
2.08059	65.437
2.07976	65.1782
2.07892	65.0017
2.07809	64.7772
2.07726	64.766
2.07643	64.7702
2.07559	64.3818
2.07476	64.5806
2.07393	64.7751
2.0731	64.1998
2.07228	64.3082
2.07145	64.741
2.07062	64.7919
2.06979	64.6779
2.06897	65.0275
2.06814	64.797
2.06732	63.9961
2.06649	63.5971
2.06567	63.7831
2.06485	63.7901
2.06403	63.5986
2.0632	63.55
2.06238	63.6387
2.06156	63.6258
2.06074	63.4378
2.05993	63.3865
2.05911	63.2822
2.05829	63.2061
2.05747	63.1674
2.05666	63.2443
2.05584	63.1576
2.05503	62.9838
2.05421	62.9405
2.0534	62.8075
2.05259	62.69
2.05177	62.6231
2.05096	62.4106
2.05015	62.2657
2.04934	62.1897
2.04853	62.3456
2.04772	62.3215
2.04691	62.1586
2.04611	62.1424
2.0453	62.0529
2.04449	61.9677
2.04369	61.905
2.04288	61.8951
2.04208	61.7221
2.04127	61.5052
2.04047	61.387
2.03967	61.372
2.03886	61.288
2.03806	61.2642
2.03726	61.2956
2.03646	61.1815
2.03566	60.9868
2.03486	60.8558
2.03407	60.7205
2.03327	60.7919
2.03247	60.7868
2.03167	60.7141
2.03088	60.6197
2.03008	60.3763
2.02929	60.1629
2.0285	60.1072
2.0277	60.0846
2.02691	60.1665
2.02612	60.2328
2.02533	60.0775
2.02453	59.7809
2.02374	59.4679
2.02295	59.4794
2.02217	59.5657
2.02138	59.4195
2.02059	59.1733
2.0198	59.0963
2.01902	59.0241
2.01823	59.0454
2.01744	58.8601
2.01666	58.5685
2.01588	58.4964
2.01509	58.6085
2.01431	58.5774
2.01353	58.6251
2.01275	58.4969
2.01196	58.2218
2.01118	58.2447
2.0104	58.3039
2.00963	58.2565
2.00885	58.1204
2.00807	57.9123
2.00729	57.7201
2.00651	57.5801
2.00574	57.4591
2.00496	57.3941
2.00419	57.3291
2.00341	56.9876
2.00264	56.9149
2.00187	57.0104
2.00109	57.0437
2.00032	57.0592
