Name: Galena PbS
Type: Mineral
Class: Sulfides
Subclass: 
Particle Size: 45-125um
Sample No.: S-7A
Owner: JPL
Wavelength range: IR
Origin: USA, Kansas, Cherokee County, Galena
Collected by Grieger's Inc.
Description: 





Measurement: Hemispherical reflectance
First Column: X
Second Column: Y
X Units:  Wavelength (micrometers)
Y Units:  Reflectance (percent)
First X Value: 15.3853
Last X Value: 2.00032
Number of X Values: 2256
Additional information: s07aa.txt
 
15.3853	11.3498
15.3397	11.706
15.2945	11.8219
15.2495	11.6863
15.2048	11.376
15.1603	11.3791
15.1161	11.763
15.0722	11.7588
15.0285	11.6268
14.9851	11.4125
14.9419	11.6474
14.8989	11.8135
14.8563	11.8908
14.8138	11.9047
14.7716	11.6484
14.7296	11.6203
14.6879	11.6955
14.6464	11.9719
14.6052	12.3162
14.5641	12.5355
14.5233	12.3489
14.4828	11.9954
14.4424	11.8906
14.4023	12.0502
14.3624	12.0373
14.3227	12.0896
14.2833	12.3954
14.244	12.4428
14.205	12.358
14.1662	12.2786
14.1276	12.1848
14.0892	12.3199
14.051	12.3734
14.0131	12.3492
13.9753	12.4632
13.9377	12.5924
13.9004	12.5496
13.8632	12.505
13.8262	12.4968
13.7895	12.3048
13.7529	12.3589
13.7165	12.5034
13.6803	12.536
13.6443	12.5249
13.6085	12.4972
13.5729	12.4614
13.5374	12.6687
13.5022	12.7652
13.4671	12.6912
13.4322	12.7774
13.3975	12.6124
13.363	12.5539
13.3286	12.615
13.2944	12.6467
13.2604	12.832
13.2266	13.0462
13.193	13.0582
13.1595	12.8872
13.1262	12.7224
13.093	12.866
13.06	13.0169
13.0272	13.0301
12.9946	12.9807
12.9621	12.9941
12.9298	13.1046
12.8976	13.078
12.8656	13.0235
12.8337	13.1304
12.8021	13.1429
12.7705	13.1543
12.7391	13.2646
12.7079	13.2278
12.6769	13.2525
12.6459	13.3067
12.6152	13.2534
12.5845	13.2553
12.5541	13.2538
12.5238	13.3031
12.4936	13.364
12.4635	13.2793
12.4337	13.214
12.4039	13.344
12.3743	13.4013
12.3448	13.3592
12.3155	13.2672
12.2863	13.3177
12.2573	13.4478
12.2284	13.4969
12.1996	13.5644
12.171	13.6287
12.1425	13.5457
12.1141	13.4877
12.0859	13.5427
12.0578	13.4309
12.0298	13.4119
12.0019	13.4694
11.9742	13.6011
11.9466	13.7472
11.9192	13.677
11.8918	13.6713
11.8646	13.7169
11.8375	13.6887
11.8106	13.6543
11.7837	13.6895
11.757	13.6505
11.7304	13.594
11.7039	13.6005
11.6776	13.5696
11.6513	13.6182
11.6252	13.7585
11.5992	13.8428
11.5733	13.823
11.5475	13.8414
11.5219	13.8129
11.4963	13.7333
11.4709	13.6847
11.4455	13.6889
11.4203	13.7432
11.3952	13.8395
11.3702	13.8371
11.3454	13.8406
11.3206	13.937
11.2959	13.9904
11.2714	13.9759
11.2469	13.9578
11.2226	13.9659
11.1983	13.9767
11.1742	14.0857
11.1502	14.0996
11.1263	14.0114
11.1024	14.0141
11.0787	14.0151
11.0551	13.9585
11.0316	13.9269
11.0081	14.1012
10.9848	14.194
10.9616	14.1901
10.9385	14.215
10.9154	14.2373
10.8925	14.1506
10.8697	14.1575
10.8469	14.1799
10.8243	14.2646
10.8017	14.3692
10.7793	14.3179
10.7569	14.2659
10.7346	14.2751
10.7125	14.3347
10.6904	14.3858
10.6684	14.4203
10.6465	14.3703
10.6247	14.3487
10.6029	14.4363
10.5813	14.4851
10.5597	14.4002
10.5383	14.4473
10.5169	14.4838
10.4956	14.4344
10.4744	14.5624
10.4533	14.6278
10.4323	14.6223
10.4113	14.5461
10.3904	14.4836
10.3697	14.4869
10.349	14.5137
10.3284	14.5763
10.3078	14.5832
10.2874	14.5577
10.267	14.6205
10.2467	14.7135
10.2265	14.7153
10.2064	14.581
10.1863	14.567
10.1663	14.635
10.1464	14.6928
10.1266	14.7258
10.1069	14.7841
10.0872	14.71
10.0676	14.6134
10.0481	14.7034
10.0287	14.8652
10.0093	14.9193
9.99005	14.9354
9.97084	14.9122
9.95169	14.9485
9.93263	15.0671
9.91364	15.0774
9.89472	14.9628
9.87587	15.0012
9.8571	15.0018
9.83839	14.9721
9.81976	14.9329
9.80119	14.8974
9.78271	14.9442
9.76428	15.0573
9.74592	15.203
9.72764	15.1941
9.70943	15.0999
9.69128	15.099
9.6732	15.0459
9.65518	14.996
9.63724	15.0672
9.61935	15.0961
9.60155	15.0935
9.5838	15.2061
9.56611	15.1719
9.5485	15.0654
9.53094	15.1192
9.51345	15.0433
9.49604	15.0713
9.47867	15.2314
9.46137	15.2907
9.44414	15.2872
9.42697	15.2918
9.40986	15.3265
9.39281	15.2507
9.37583	15.2778
9.35891	15.3533
9.34204	15.3365
9.32524	15.2579
9.3085	15.214
9.29182	15.2002
9.27519	15.0993
9.25863	15.0741
9.24213	15.0876
9.22568	15.2261
9.2093	15.3202
9.19297	15.283
9.17669	15.2273
9.16048	15.3324
9.14433	15.4558
9.12823	15.3955
9.11218	15.216
9.0962	15.212
9.08027	15.2711
9.06439	15.3082
9.04858	15.2724
9.03281	15.2186
9.0171	15.2007
9.00145	15.3069
8.98585	15.5097
8.9703	15.4942
8.9548	15.4126
8.93937	15.3011
8.92398	15.3409
8.90865	15.5321
8.89337	15.5951
8.87814	15.5345
8.86296	15.4905
8.84784	15.5242
8.83277	15.5488
8.81774	15.4176
8.80277	15.4254
8.78786	15.5155
8.77298	15.522
8.75816	15.5851
8.7434	15.5727
8.72868	15.4854
8.714	15.5077
8.69938	15.5762
8.68481	15.5966
8.67029	15.6736
8.65581	15.687
8.64139	15.7062
8.62701	15.696
8.61268	15.6207
8.5984	15.6346
8.58416	15.8229
8.56997	15.9383
8.55583	15.8823
8.54174	15.768
8.52769	15.7537
8.51368	15.8059
8.49973	15.8172
8.48582	15.7463
8.47195	15.8082
8.45813	15.944
8.44436	15.9189
8.43062	15.9347
8.41693	16.0035
8.4033	16.0868
8.3897	16.1741
8.37614	16.2179
8.36264	16.3399
8.34917	16.371
8.33574	16.2832
8.32236	16.2754
8.30903	16.3234
8.29573	16.3432
8.28248	16.2805
8.26927	16.2951
8.2561	16.3424
8.24298	16.4409
8.2299	16.4269
8.21685	16.4671
8.20385	16.6369
8.19089	16.6937
8.17797	16.6367
8.16509	16.6179
8.15225	16.5969
8.13946	16.5636
8.1267	16.6166
8.11398	16.6533
8.10131	16.6587
8.08867	16.728
8.07606	16.8603
8.0635	16.8624
8.05099	16.7952
8.0385	16.7188
8.02606	16.7104
8.01366	16.792
8.00129	16.8995
7.98896	16.9287
7.97667	16.8296
7.96442	16.8903
7.9522	17.006
7.94002	16.9655
7.92788	16.9459
7.91578	17.0299
7.90371	17.0883
7.89168	17.1242
7.87969	17.0902
7.86773	17.0297
7.85581	17.0809
7.84392	17.1265
7.83207	17.1143
7.82026	17.1419
7.80849	17.1913
7.79674	17.2228
7.78503	17.207
7.77337	17.1952
7.76173	17.1831
7.75012	17.2307
7.73856	17.2541
7.72703	17.2327
7.71553	17.2569
7.70406	17.2557
7.69263	17.3134
7.68123	17.3385
7.66987	17.2875
7.65855	17.3087
7.64725	17.3186
7.63598	17.3362
7.62475	17.3294
7.61356	17.36
7.60239	17.3782
7.59126	17.4602
7.58017	17.4881
7.5691	17.4094
7.55806	17.3419
7.54707	17.4087
7.5361	17.4049
7.52516	17.3828
7.51425	17.4514
7.50338	17.5154
7.49253	17.4793
7.48172	17.4294
7.47094	17.5339
7.46019	17.5653
7.44947	17.4584
7.43879	17.4337
7.42813	17.4621
7.4175	17.5022
7.4069	17.5299
7.39634	17.5286
7.3858	17.4973
7.37529	17.5414
7.36482	17.617
7.35437	17.679
7.34396	17.7636
7.33357	17.7334
7.32321	17.5646
7.31288	17.553
7.30258	17.5861
7.29231	17.5744
7.28207	17.6757
7.27185	17.762
7.26167	17.7157
7.25152	17.7195
7.24139	17.6899
7.23129	17.7334
7.22122	17.7584
7.21117	17.9386
7.20116	17.9713
7.19117	17.8525
7.18121	17.947
7.17128	18.0964
7.16137	17.9992
7.1515	18.0658
7.14164	18.0736
7.13182	17.952
7.12203	17.9593
7.11225	17.9877
7.10251	17.9463
7.0928	17.9396
7.08311	17.9526
7.07344	17.941
7.06381	17.9619
7.0542	18.3272
7.04461	18.5963
7.03506	18.3336
7.02552	18.177
7.01601	18.1658
7.00653	18.2401
6.99708	18.3162
6.98765	18.22
6.97824	18.1719
6.96886	18.3882
6.95951	18.621
6.95018	18.2741
6.94087	18.1119
6.9316	18.1363
6.92234	18.2388
6.91311	18.4003
6.90391	18.4599
6.89473	18.3539
6.88557	18.3683
6.87644	18.5702
6.86733	19.2341
6.85824	19.2034
6.84918	18.5752
6.84015	18.3725
6.83114	18.6409
6.82215	18.736
6.81319	18.5282
6.80424	18.5813
6.79532	18.994
6.78643	19.1571
6.77756	18.8394
6.76871	18.5877
6.75989	18.4559
6.75109	18.5254
6.74231	18.5315
6.73355	18.5778
6.72482	18.7699
6.71611	18.9507
6.70742	18.918
6.69875	18.733
6.69011	18.9589
6.68149	19.2744
6.67289	19.0772
6.66431	18.8445
6.65576	18.7717
6.64722	19.2138
6.63871	19.9799
6.63022	19.6408
6.62175	19.0559
6.61331	19.0004
6.60488	19.0032
6.59648	19.1241
6.5881	19.1853
6.57974	19.5321
6.5714	19.9216
6.56308	19.4998
6.55478	19.302
6.54651	19.1952
6.53825	19.0934
6.53001	19.1862
6.5218	19.4362
6.51361	19.1968
6.50544	19.4307
6.49729	20.4047
6.48915	20.3829
6.48104	19.7715
6.47295	19.5424
6.46488	19.3274
6.45683	19.2764
6.4488	19.3535
6.44079	19.588
6.4328	19.8531
6.42482	20.1134
6.41687	20.9663
6.40894	20.7654
6.40103	19.7045
6.39314	19.419
6.38526	19.4346
6.37741	19.6438
6.36957	19.8854
6.36176	19.6538
6.35396	19.726
6.34618	20.2634
6.33843	19.9602
6.33069	19.4095
6.32297	19.3451
6.31527	19.3602
6.30758	19.3603
6.29992	19.3674
6.29227	19.4652
6.28465	19.563
6.27704	19.599
6.26945	19.5494
6.26188	19.5174
6.25432	19.5054
6.24679	19.5546
6.23927	19.5546
6.23177	19.5991
6.22429	19.6734
6.21683	19.7215
6.20938	19.6153
6.20195	19.5556
6.19454	19.7864
6.18715	20.3987
6.17978	20.1988
6.17242	19.7679
6.16508	19.9991
6.15776	20.1398
6.15045	19.9776
6.14317	19.9631
6.1359	19.8358
6.12864	19.7785
6.12141	20.2271
6.11419	20.885
6.10699	20.455
6.0998	19.9339
6.09263	19.8991
6.08549	19.9665
6.07835	20.4568
6.07123	20.7559
6.06413	20.4179
6.05705	20.7449
6.04998	21.8431
6.04293	21.1259
6.0359	20.1901
6.02888	20.1027
6.02187	20.1495
6.01489	20.3332
6.00792	20.173
6.00096	20.0828
5.99403	20.4735
5.98711	20.6097
5.9802	20.3533
5.97331	20.4918
5.96644	20.5761
5.95958	20.2155
5.95274	20.1955
5.94591	20.5248
5.9391	21.3658
5.9323	21.1613
5.92552	20.4587
5.91876	20.3277
5.91201	20.2798
5.90528	20.4541
5.89856	21.137
5.89186	21.0621
5.88517	21.345
5.8785	21.5253
5.87184	20.6415
5.8652	20.5653
5.85857	20.5401
5.85196	20.3779
5.84536	20.3371
5.83878	20.4449
5.83221	20.725
5.82566	21.2308
5.81912	21.2145
5.81259	20.5927
5.80608	20.3588
5.79959	20.339
5.79311	20.258
5.78665	20.3265
5.78019	20.4454
5.77376	20.789
5.76734	21.4097
5.76093	20.9725
5.75453	20.5199
5.74815	20.6994
5.74179	20.5667
5.73543	20.5105
5.7291	20.6415
5.72277	20.8095
5.71646	20.9336
5.71017	21.0009
5.70389	20.6658
5.69762	20.606
5.69136	20.7201
5.68513	20.5954
5.6789	20.7501
5.67268	20.816
5.66648	20.6394
5.6603	20.7771
5.65413	20.8899
5.64797	21.0042
5.64182	21.3209
5.63569	21.0323
5.62957	20.6942
5.62347	20.6376
5.61737	20.7434
5.61129	20.8221
5.60522	20.7912
5.59917	20.7564
5.59313	20.6598
5.5871	20.7888
5.58109	21.1373
5.57509	21.117
5.5691	20.8862
5.56312	20.8757
5.55716	20.914
5.55121	20.8801
5.54528	20.7865
5.53935	20.7593
5.53344	20.8266
5.52754	20.8764
5.52166	20.8956
5.51578	20.8859
5.50992	20.8219
5.50407	20.8003
5.49823	20.7588
5.49241	20.8048
5.4866	20.8555
5.4808	21.0912
5.47501	21.19
5.46923	21.184
5.46347	21.2048
5.45772	21.1002
5.45198	21.026
5.44625	21.0259
5.44054	21.0539
5.43484	21.0556
5.42914	21.2121
5.42347	21.4962
5.4178	21.4027
5.41214	21.2488
5.4065	21.2235
5.40087	21.1345
5.39525	21.0754
5.38964	21.0377
5.38404	21.1295
5.37846	21.2304
5.37288	21.2504
5.36732	21.224
5.36177	21.2683
5.35623	21.4302
5.35071	21.488
5.34519	21.3611
5.33968	21.3023
5.33419	21.3303
5.32871	21.3617
5.32324	21.4224
5.31778	21.4006
5.31233	21.3631
5.30689	21.2974
5.30147	21.3081
5.29605	21.4127
5.29065	21.4752
5.28525	21.4773
5.27987	21.5189
5.2745	21.4937
5.26914	21.4617
5.26379	21.4292
5.25845	21.3967
5.25312	21.4185
5.24781	21.5539
5.2425	21.6659
5.23721	21.71
5.23192	21.6346
5.22665	21.5849
5.22138	21.5932
5.21613	21.7184
5.21089	21.7837
5.20566	21.723
5.20044	21.7188
5.19522	21.6371
5.19002	21.5614
5.18483	21.6238
5.17965	21.7281
5.17448	21.7764
5.16933	21.7499
5.16418	21.7241
5.15904	21.6803
5.15391	21.7116
5.14879	21.7816
5.14368	21.7551
5.13859	21.8102
5.1335	21.8462
5.12842	21.7801
5.12335	21.7512
5.1183	21.7968
5.11325	21.8717
5.10821	21.917
5.10318	21.8635
5.09817	21.7363
5.09316	21.7434
5.08816	21.7913
5.08317	21.8386
5.07819	21.8838
5.07322	21.9198
5.06826	21.9733
5.06331	21.9755
5.05837	21.9611
5.05344	21.9244
5.04852	21.9436
5.04361	21.9508
5.03871	21.9953
5.03382	22.073
5.02894	22.0373
5.02406	22.036
5.0192	22.0553
5.01435	22.0296
5.0095	22.0513
5.00467	22.0311
4.99984	22.0217
4.99502	22.0894
4.99021	22.0891
4.98542	22.125
4.98063	22.1513
4.97585	22.1321
4.97108	22.1253
4.96632	22.1592
4.96156	22.1773
4.95682	22.2043
4.95209	22.2254
4.94736	22.2032
4.94264	22.1494
4.93794	22.1921
4.93324	22.2264
4.92855	22.2645
4.92387	22.2738
4.9192	22.2943
4.91453	22.3105
4.90988	22.2495
4.90524	22.2162
4.9006	22.2513
4.89597	22.2915
4.89135	22.3308
4.88674	22.3589
4.88214	22.3614
4.87755	22.4038
4.87296	22.4272
4.86839	22.4362
4.86382	22.3836
4.85926	22.3846
4.85471	22.4162
4.85017	22.4132
4.84564	22.4584
4.84111	22.4641
4.8366	22.4118
4.83209	22.3983
4.82759	22.4335
4.8231	22.4179
4.81862	22.5018
4.81415	22.5513
4.80968	22.5862
4.80522	22.5698
4.80077	22.5379
4.79633	22.5848
4.7919	22.6073
4.78747	22.6438
4.78306	22.6889
4.77865	22.7183
4.77425	22.6929
4.76986	22.6525
4.76547	22.6518
4.7611	22.6784
4.75673	22.7183
4.75237	22.6574
4.74802	22.6412
4.74367	22.7235
4.73934	22.7814
4.73501	22.8182
4.73069	22.814
4.72638	22.7991
4.72207	22.748
4.71777	22.7364
4.71348	22.7532
4.7092	22.7753
4.70493	22.7269
4.70066	22.7086
4.69641	22.6662
4.69216	22.6955
4.68791	22.8328
4.68368	22.8733
4.67945	22.929
4.67523	22.9095
4.67102	22.8458
4.66682	22.8794
4.66262	22.888
4.65843	22.8654
4.65425	22.8844
4.65007	22.8588
4.64591	22.79
4.64175	22.8146
4.6376	22.8961
4.63345	22.9212
4.62932	23.0039
4.62519	23.0167
4.62106	22.985
4.61695	23.0157
4.61284	23.0702
4.60874	23.0433
4.60465	23.0837
4.60056	23.1527
4.59648	23.1244
4.59241	23.0812
4.58835	23.0968
4.58429	23.0899
4.58024	23.0574
4.5762	23.127
4.57216	23.1531
4.56814	23.1301
4.56411	23.1214
4.5601	23.0885
4.55609	23.1451
4.55209	23.2225
4.5481	23.2036
4.54411	23.2066
4.54013	23.2072
4.53616	23.2107
4.5322	23.2667
4.52824	23.2909
4.52429	23.2511
4.52034	23.2617
4.51641	23.2596
4.51247	23.2089
4.50855	23.2454
4.50463	23.362
4.50072	23.3776
4.49682	23.3376
4.49292	23.3795
4.48903	23.3506
4.48515	23.3197
4.48127	23.4134
4.4774	23.4503
4.47354	23.429
4.46968	23.4187
4.46584	23.4288
4.46199	23.3992
4.45815	23.4022
4.45432	23.498
4.4505	23.5248
4.44668	23.4894
4.44287	23.4258
4.43907	23.4377
4.43527	23.4795
4.43148	23.5018
4.4277	23.4765
4.42392	23.4754
4.42015	23.5926
4.41638	23.6287
4.41262	23.5194
4.40887	23.4604
4.40513	23.516
4.40139	23.5558
4.39765	23.5864
4.39393	23.5982
4.39021	23.6153
4.38649	23.6153
4.38278	23.5671
4.37908	23.5886
4.37539	23.6326
4.3717	23.6852
4.36801	23.7006
4.36434	23.6954
4.36067	23.6294
4.357	23.5933
4.35335	23.6425
4.34969	23.7259
4.34605	23.7036
4.34241	23.686
4.33877	23.7296
4.33514	23.6961
4.33152	23.6129
4.32791	23.6338
4.3243	23.6739
4.32069	23.6609
4.3171	23.5344
4.31351	23.4784
4.30992	23.4856
4.30634	23.4776
4.30277	23.4619
4.2992	23.4098
4.29564	23.3277
4.29208	23.2271
4.28853	23.177
4.28499	23.1968
4.28145	23.2525
4.27792	23.2605
4.27439	23.2376
4.27087	23.2988
4.26735	23.443
4.26384	23.5336
4.26034	23.6506
4.25684	23.7498
4.25335	23.5771
4.24986	23.4424
4.24638	23.3438
4.24291	23.1891
4.23944	23.125
4.23598	23.1818
4.23252	23.1954
4.22906	23.2202
4.22562	23.2799
4.22218	23.3795
4.21874	23.4877
4.21531	23.6877
4.21189	23.781
4.20847	23.8789
4.20506	24.061
4.20165	24.1136
4.19825	24.1132
4.19485	24.1457
4.19146	24.1419
4.18807	24.1871
4.18469	24.1988
4.18132	24.1445
4.17795	24.0536
4.17458	24.0084
4.17123	24.0461
4.16787	24.1616
4.16453	24.207
4.16118	24.2089
4.15785	24.1852
4.15451	24.1615
4.15119	24.1577
4.14787	24.2517
4.14455	24.3171
4.14124	24.2349
4.13794	24.1447
4.13464	24.2038
4.13134	24.2772
4.12805	24.2741
4.12477	24.2311
4.12149	24.269
4.11822	24.2579
4.11495	24.3065
4.11168	24.4089
4.10843	24.4896
4.10517	24.4505
4.10192	24.3514
4.09868	24.3182
4.09545	24.3227
4.09221	24.3746
4.08899	24.4375
4.08576	24.4783
4.08255	24.4461
4.07933	24.4993
4.07613	24.5271
4.07292	24.4024
4.06973	24.3775
4.06654	24.4674
4.06335	24.5002
4.06017	24.4551
4.05699	24.4428
4.05382	24.4619
4.05065	24.478
4.04749	24.5138
4.04433	24.5497
4.04118	24.5861
4.03803	24.546
4.03489	24.4869
4.03175	24.4022
4.02862	24.44
4.02549	24.5038
4.02237	24.455
4.01925	24.4077
4.01614	24.4484
4.01303	24.4854
4.00993	24.5967
4.00683	24.6141
4.00373	24.6037
4.00064	24.6217
3.99756	24.5909
3.99448	24.5147
3.9914	24.4136
3.98833	24.4345
3.98527	24.5572
3.98221	24.5047
3.97915	24.4865
3.9761	24.6044
3.97305	24.6691
3.97001	24.609
3.96697	24.6082
3.96394	24.6925
3.96091	24.5859
3.95789	24.4806
3.95487	24.5434
3.95186	24.6208
3.94885	24.6271
3.94584	24.5735
3.94284	24.5333
3.93984	24.5541
3.93685	24.5583
3.93386	24.6084
3.93088	24.7152
3.9279	24.7387
3.92493	24.6913
3.92196	24.7267
3.919	24.75
3.91604	24.7413
3.91308	24.7591
3.91013	24.7014
3.90718	24.6365
3.90424	24.702
3.9013	24.7207
3.89837	24.7453
3.89544	24.7784
3.89252	24.8152
3.8896	24.8767
3.88668	24.9149
3.88377	24.9444
3.88086	24.8868
3.87796	24.8153
3.87506	24.7979
3.87217	24.8158
3.86928	24.8366
3.86639	24.8509
3.86351	24.8522
3.86064	24.8485
3.85776	24.8358
3.8549	24.903
3.85203	24.9597
3.84917	24.9082
3.84631	24.8528
3.84346	24.8236
3.84062	24.9115
3.83777	25.0772
3.83494	25.0483
3.8321	24.974
3.82927	24.9881
3.82644	24.9496
3.82362	24.942
3.82081	25.0033
3.81799	25.0651
3.81518	25.0987
3.81238	25.0268
3.80958	24.989
3.80678	24.9877
3.80399	24.9733
3.8012	24.9521
3.79841	24.9733
3.79563	25.0324
3.79286	25.1075
3.79008	25.1654
3.78731	25.1442
3.78455	25.1211
3.78179	25.0655
3.77903	25.0575
3.77628	25.0631
3.77353	25.0954
3.77079	25.0882
3.76805	25.1454
3.76531	25.1944
3.76258	25.1482
3.75985	25.1206
3.75713	25.1759
3.7544	25.2205
3.75169	25.2308
3.74898	25.2651
3.74627	25.2271
3.74356	25.1565
3.74086	25.1722
3.73816	25.2196
3.73547	25.2389
3.73278	25.224
3.7301	25.1745
3.72741	25.252
3.72474	25.2605
3.72206	25.2427
3.71939	25.2887
3.71673	25.3387
3.71406	25.365
3.71141	25.3598
3.70875	25.3244
3.7061	25.2583
3.70345	25.2667
3.70081	25.3197
3.69817	25.3018
3.69553	25.2782
3.6929	25.2125
3.69027	25.158
3.68765	25.218
3.68503	25.2289
3.68241	25.2385
3.6798	25.2444
3.67719	25.3239
3.67458	25.3558
3.67198	25.3454
3.66938	25.3849
3.66678	25.3892
3.66419	25.3347
3.66161	25.3032
3.65902	25.3179
3.65644	25.3167
3.65387	25.3071
3.65129	25.3104
3.64872	25.276
3.64616	25.2874
3.64359	25.3508
3.64103	25.3898
3.63848	25.3329
3.63593	25.2749
3.63338	25.2928
3.63084	25.3544
3.6283	25.3384
3.62576	25.3368
3.62322	25.3323
3.62069	25.2949
3.61817	25.2691
3.61564	25.2396
3.61312	25.3121
3.61061	25.3534
3.6081	25.3726
3.60559	25.3921
3.60308	25.3933
3.60058	25.3397
3.59808	25.2869
3.59558	25.2741
3.59309	25.3098
3.59061	25.3607
3.58812	25.3481
3.58564	25.3528
3.58316	25.2591
3.58069	25.2269
3.57822	25.3015
3.57575	25.3808
3.57328	25.4111
3.57082	25.3295
3.56836	25.2763
3.56591	25.2944
3.56346	25.3123
3.56101	25.2887
3.55857	25.2981
3.55613	25.2293
3.55369	25.2012
3.55126	25.2689
3.54883	25.2236
3.5464	25.2135
3.54397	25.2581
3.54155	25.2664
3.53914	25.2011
3.53672	25.2314
3.53431	25.2302
3.5319	25.1998
3.5295	25.196
3.5271	25.2456
3.5247	25.27
3.52231	25.2228
3.51991	25.1631
3.51753	25.169
3.51514	25.1156
3.51276	25.1307
3.51038	25.1437
3.50801	25.1141
3.50563	25.0671
3.50327	25.0197
3.5009	24.9362
3.49854	24.9684
3.49618	24.9879
3.49382	24.8866
3.49147	24.9308
3.48912	24.9842
3.48677	24.9528
3.48443	24.9313
3.48209	25.0032
3.47975	24.9022
3.47742	24.8816
3.47509	24.8576
3.47276	24.8415
3.47044	24.8629
3.46812	24.8388
3.4658	24.9242
3.46348	24.9398
3.46117	24.8408
3.45886	24.7925
3.45656	24.8484
3.45425	24.887
3.45195	24.8196
3.44966	24.7745
3.44736	24.8247
3.44507	24.8058
3.44279	24.7617
3.4405	24.7605
3.43822	24.7579
3.43594	24.7437
3.43367	24.7302
3.43139	24.7666
3.42912	24.6972
3.42686	24.6399
3.42459	24.638
3.42233	24.5862
3.42007	24.5806
3.41782	24.5969
3.41557	24.6225
3.41332	24.5701
3.41108	24.5089
3.40883	24.4438
3.40659	24.406
3.40435	24.3994
3.40212	24.4594
3.39989	24.5342
3.39766	24.5941
3.39544	24.5775
3.39322	24.492
3.391	24.4184
3.38878	24.3319
3.38657	24.2582
3.38436	24.2424
3.38215	24.2287
3.37994	24.2503
3.37774	24.2452
3.37554	24.243
3.37335	24.2704
3.37115	24.1586
3.36896	24.1291
3.36678	24.1853
3.36459	24.0586
3.36241	23.9893
3.36023	23.9948
3.35805	23.9805
3.35588	23.8939
3.35371	23.9788
3.35154	23.9796
3.34938	23.8419
3.34721	23.7831
3.34505	23.8244
3.3429	23.8167
3.34074	23.7661
3.33859	23.7422
3.33644	23.6974
3.3343	23.7227
3.33215	23.7314
3.33001	23.7025
3.32788	23.6413
3.32574	23.5055
3.32361	23.4562
3.32148	23.5145
3.31936	23.451
3.31723	23.4141
3.31511	23.4815
3.31299	23.4247
3.31088	23.4386
3.30876	23.4376
3.30665	23.3855
3.30455	23.3138
3.30244	23.2199
3.30034	23.2222
3.29824	23.3052
3.29614	23.3273
3.29405	23.2575
3.29196	23.1182
3.28987	23.0938
3.28778	23.0324
3.2857	22.9633
3.28362	22.9381
3.28154	22.8927
3.27946	22.8436
3.27739	22.8255
3.27532	22.8391
3.27325	22.8342
3.27119	22.758
3.26913	22.6964
3.26707	22.7013
3.26501	22.602
3.26295	22.5541
3.2609	22.5279
3.25885	22.5506
3.2568	22.4946
3.25476	22.4186
3.25272	22.2418
3.25068	22.2719
3.24864	22.3868
3.24661	22.356
3.24458	22.2177
3.24255	22.0917
3.24052	21.9967
3.2385	22.0236
3.23648	22.1007
3.23446	21.9931
3.23244	21.8558
3.23043	21.8648
3.22841	21.9074
3.2264	21.8363
3.2244	21.7445
3.22239	21.6816
3.22039	21.6209
3.21839	21.5428
3.2164	21.4915
3.2144	21.486
3.21241	21.4141
3.21042	21.4126
3.20844	21.391
3.20645	21.2293
3.20447	21.1744
3.20249	21.1783
3.20051	21.0826
3.19854	20.9844
3.19657	20.9763
3.1946	20.8298
3.19263	20.7206
3.19067	20.6897
3.1887	20.7533
3.18674	20.7765
3.18479	20.6634
3.18283	20.6616
3.18088	20.6798
3.17893	20.521
3.17698	20.4529
3.17504	20.3791
3.17309	20.2134
3.17115	20.2544
3.16921	20.3457
3.16728	20.2534
3.16534	20.0858
3.16341	20.0974
3.16148	20.004
3.15956	19.8787
3.15763	19.8437
3.15571	19.7391
3.15379	19.7572
3.15187	19.7506
3.14996	19.6361
3.14805	19.5954
3.14614	19.6101
3.14423	19.5156
3.14232	19.3696
3.14042	19.3793
3.13852	19.2768
3.13662	19.1756
3.13472	19.1232
3.13283	19.0908
3.13094	19.0381
3.12905	18.9277
3.12716	18.8834
3.12528	18.8952
3.12339	18.8231
3.12151	18.7974
3.11964	18.8841
3.11776	18.6996
3.11589	18.4741
3.11401	18.5386
3.11214	18.5406
3.11028	18.4602
3.10841	18.4459
3.10655	18.3499
3.10469	18.35
3.10283	18.3872
3.10098	18.3306
3.09912	18.2284
3.09727	17.9979
3.09542	17.79
3.09358	17.8232
3.09173	17.9713
3.08989	17.8665
3.08805	17.7477
3.08621	17.7139
3.08437	17.6172
3.08254	17.6454
3.08071	17.6428
3.07888	17.541
3.07705	17.5019
3.07523	17.5056
3.0734	17.545
3.07158	17.4409
3.06977	17.2467
3.06795	17.1994
3.06613	17.2596
3.06432	17.2337
3.06251	17.1749
3.0607	17.0926
3.0589	17.1262
3.0571	17.1556
3.05529	17.0307
3.05349	17.0035
3.0517	17.093
3.0499	17.008
3.04811	16.7817
3.04632	16.7778
3.04453	16.8355
3.04274	16.8678
3.04096	16.7811
3.03918	16.7402
3.0374	16.8146
3.03562	16.7592
3.03384	16.6125
3.03207	16.6281
3.03029	16.6268
3.02852	16.6137
3.02676	16.5579
3.02499	16.5105
3.02323	16.5857
3.02146	16.5116
3.0197	16.4777
3.01795	16.5256
3.01619	16.3974
3.01444	16.2704
3.01269	16.3156
3.01094	16.5493
3.00919	16.5903
3.00744	16.4354
3.0057	16.3318
3.00396	16.2608
3.00222	16.2665
3.00048	16.3746
2.99875	16.3416
2.99701	16.3155
2.99528	16.2625
2.99355	16.1185
2.99183	16.2014
2.9901	16.2848
2.98838	16.3389
2.98666	16.3634
2.98494	16.2669
2.98322	16.2214
2.9815	16.294
2.97979	16.2476
2.97808	16.0997
2.97637	16.06
2.97466	16.0982
2.97295	16.0286
2.97125	15.9636
2.96955	16.1034
2.96785	16.2921
2.96615	16.2695
2.96446	16.1046
2.96276	16.0528
2.96107	16.152
2.95938	16.145
2.95769	16.1527
2.95601	16.1712
2.95432	16.0908
2.95264	16.1066
2.95096	16.0097
2.94928	15.9729
2.9476	16.1091
2.94593	16.1565
2.94425	16.2546
2.94258	16.3375
2.94092	16.1971
2.93925	16.1461
2.93758	16.1698
2.93592	16.1726
2.93426	16.2092
2.9326	16.1339
2.93094	16.0784
2.92928	16.0629
2.92763	15.9257
2.92598	15.9735
2.92433	15.9418
2.92268	15.8948
2.92103	16.0441
2.91939	16.1728
2.91775	16.0549
2.9161	15.9524
2.91447	16.003
2.91283	16.1047
2.91119	15.9919
2.90956	15.8906
2.90793	16.0334
2.9063	16.1695
2.90467	16.2036
2.90304	16.1554
2.90142	16.1621
2.89979	16.0034
2.89817	15.9137
2.89656	16.0077
2.89494	15.9938
2.89332	16.0166
2.89171	16.1547
2.8901	16.0681
2.88849	16.0196
2.88688	15.9196
2.88527	15.8507
2.88367	15.9297
2.88206	15.9794
2.88046	15.8974
2.87886	15.8738
2.87727	15.9501
2.87567	15.9653
2.87408	16.082
2.87248	16.0371
2.87089	15.8976
2.8693	15.8459
2.86772	15.8497
2.86613	15.9308
2.86455	15.9791
2.86297	16.0278
2.86139	16.0501
2.85981	15.9701
2.85823	15.9365
2.85666	16.0113
2.85508	16.0438
2.85351	15.9872
2.85194	15.9954
2.85038	16.0579
2.84881	15.9618
2.84724	15.8388
2.84568	15.9291
2.84412	15.965
2.84256	15.9103
2.841	15.8745
2.83945	15.92
2.83789	16.0355
2.83634	16.0454
2.83479	15.9213
2.83324	15.8361
2.83169	15.9072
2.83015	15.9296
2.82861	16.0044
2.82706	15.9845
2.82552	15.9263
2.82398	15.9015
2.82245	15.9116
2.82091	15.9018
2.81938	15.8118
2.81784	15.8055
2.81631	15.9341
2.81479	16.0508
2.81326	15.9772
2.81173	15.8156
2.81021	15.8085
2.80869	15.9219
2.80716	16.034
2.80565	15.9788
2.80413	16.0318
2.80261	16.156
2.8011	16.1569
2.79959	16.0173
2.79808	15.759
2.79657	15.5836
2.79506	15.7524
2.79355	15.9075
2.79205	15.8923
2.79055	15.8184
2.78904	15.8842
2.78754	16.1937
2.78605	16.2226
2.78455	15.994
2.78306	15.8954
2.78156	15.8992
2.78007	15.9152
2.77858	15.8237
2.77709	15.769
2.77561	15.8269
2.77412	15.833
2.77264	15.9271
2.77116	16.0742
2.76968	16.0309
2.7682	15.9393
2.76672	15.8574
2.76524	15.6356
2.76377	15.6709
2.7623	15.9133
2.76083	15.9915
2.75936	15.9914
2.75789	16.1408
2.75642	16.5816
2.75496	16.5002
2.7535	15.9888
2.75203	15.8486
2.75057	15.776
2.74912	15.6231
2.74766	15.6951
2.7462	15.8093
2.74475	15.9328
2.7433	15.8047
2.74185	16.0315
2.7404	16.324
2.73895	16.0752
2.7375	15.7609
2.73606	15.8513
2.73462	16.0153
2.73318	15.9066
2.73174	15.7037
2.7303	15.6623
2.72886	15.7465
2.72742	15.6724
2.72599	15.7782
2.72456	16.1506
2.72313	16.0197
2.7217	16.1654
2.72027	16.4052
2.71884	16.0363
2.71742	15.7915
2.71599	15.5779
2.71457	15.5617
2.71315	15.8188
2.71173	16.2268
2.71032	16.1103
2.7089	15.9156
2.70748	15.7818
2.70607	15.6298
2.70466	15.5014
2.70325	15.5468
2.70184	15.8695
2.70043	15.823
2.69903	15.6984
2.69762	15.8139
2.69622	15.9343
2.69482	16.0856
2.69342	16.0704
2.69202	15.7673
2.69062	15.677
2.68923	15.6092
2.68783	15.6525
2.68644	15.714
2.68505	15.7216
2.68366	15.8069
2.68227	15.6924
2.68089	15.6516
2.6795	15.8976
2.67812	16.0352
2.67673	16.2562
2.67535	16.1643
2.67397	15.9474
2.6726	15.8706
2.67122	16.3785
2.66984	16.48
2.66847	16.0909
2.6671	16.3631
2.66572	16.3893
2.66435	16.0428
2.66299	15.7468
2.66162	15.7129
2.66025	15.7084
2.65889	15.6962
2.65753	15.6142
2.65616	15.7382
2.65481	15.7071
2.65345	15.737
2.65209	15.826
2.65073	15.7139
2.64938	15.6799
2.64803	15.6677
2.64667	15.6455
2.64532	15.6404
2.64397	15.5146
2.64263	15.7026
2.64128	15.7978
2.63994	15.5813
2.63859	15.5115
2.63725	15.544
2.63591	15.5037
2.63457	15.6373
2.63323	15.6874
2.6319	15.7933
2.63056	16.043
2.62923	15.7828
2.62789	15.8818
2.62656	16.1443
2.62523	15.8523
2.6239	15.6404
2.62258	15.6572
2.62125	15.9511
2.61993	15.9976
2.6186	15.7068
2.61728	15.8287
2.61596	15.8428
2.61464	15.6848
2.61332	15.6093
2.61201	15.5077
2.61069	15.6339
2.60938	15.7664
2.60807	15.874
2.60675	16.0254
2.60544	16.1388
2.60414	15.8581
2.60283	15.7103
2.60152	15.6143
2.60022	15.5014
2.59891	15.5855
2.59761	15.808
2.59631	16.2936
2.59501	16.8139
2.59371	16.2878
2.59242	15.7678
2.59112	15.7102
2.58983	15.6711
2.58853	15.6817
2.58724	15.721
2.58595	15.7149
2.58466	16.0014
2.58338	15.988
2.58209	15.6196
2.5808	15.6665
2.57952	15.5477
2.57824	15.5875
2.57695	15.6613
2.57567	15.6619
2.5744	15.7712
2.57312	15.7858
2.57184	15.5627
2.57057	15.6903
2.56929	15.7286
2.56802	15.5987
2.56675	15.4786
2.56548	15.582
2.56421	15.8283
2.56294	15.8567
2.56168	15.7511
2.56041	15.5968
2.55915	15.4977
2.55789	15.3934
2.55662	15.3105
2.55536	15.3884
2.5541	15.4234
2.55285	15.4866
2.55159	15.3698
2.55034	15.2635
2.54908	15.4254
2.54783	15.5005
2.54658	15.3475
2.54533	15.3714
2.54408	15.4886
2.54283	15.4472
2.54159	15.5195
2.54034	15.692
2.5391	15.6374
2.53785	15.4454
2.53661	15.3716
2.53537	15.4525
2.53413	15.4288
2.53289	15.4524
2.53166	15.5412
2.53042	15.685
2.52919	15.6538
2.52795	15.5807
2.52672	15.5493
2.52549	15.3823
2.52426	15.3117
2.52303	15.2811
2.52181	15.2259
2.52058	15.1877
2.51936	15.1863
2.51813	15.34
2.51691	15.4991
2.51569	15.4457
2.51447	15.4209
2.51325	15.3639
2.51203	15.3854
2.51082	15.4991
2.5096	15.5154
2.50839	15.3427
2.50717	15.4332
2.50596	15.5039
2.50475	15.4009
2.50354	15.3724
2.50233	15.3027
2.50113	15.3144
2.49992	15.5124
2.49872	15.6477
2.49751	15.5227
2.49631	15.505
2.49511	15.4448
2.49391	15.4017
2.49271	15.4926
2.49151	15.3637
2.49031	15.0479
2.48912	15.0973
2.48792	15.3031
2.48673	15.3116
2.48554	15.3709
2.48435	15.2879
2.48316	15.2162
2.48197	15.3839
2.48078	15.4438
2.4796	15.4772
2.47841	15.4984
2.47723	15.5238
2.47604	15.5063
2.47486	15.451
2.47368	15.3817
2.4725	15.4016
2.47132	15.4189
2.47014	15.3801
2.46897	15.3303
2.46779	15.2296
2.46662	15.2338
2.46545	15.2823
2.46427	15.3655
2.4631	15.4193
2.46193	15.4722
2.46077	15.4366
2.4596	15.3328
2.45843	15.3109
2.45727	15.3275
2.4561	15.3012
2.45494	15.297
2.45378	15.3472
2.45262	15.4198
2.45146	15.4254
2.4503	15.4186
2.44914	15.5183
2.44799	15.4542
2.44683	15.3278
2.44568	15.2508
2.44452	15.2026
2.44337	15.3149
2.44222	15.3179
2.44107	15.2814
2.43992	15.332
2.43877	15.4016
2.43763	15.389
2.43648	15.3252
2.43534	15.3882
2.43419	15.3756
2.43305	15.3746
2.43191	15.4241
2.43077	15.4624
2.42963	15.4464
2.42849	15.4303
2.42736	15.3528
2.42622	15.2629
2.42509	15.1563
2.42395	15.1746
2.42282	15.3167
2.42169	15.4149
2.42056	15.3631
2.41943	15.3145
2.4183	15.3409
2.41717	15.2954
2.41605	15.266
2.41492	15.3014
2.4138	15.3303
2.41267	15.2159
2.41155	15.2831
2.41043	15.3461
2.40931	15.1317
2.40819	15.1019
2.40707	15.259
2.40595	15.2975
2.40484	15.1735
2.40372	15.2522
2.40261	15.3752
2.4015	15.3671
2.40039	15.4025
2.39928	15.4319
2.39817	15.4148
2.39706	15.2454
2.39595	15.0647
2.39484	15.2651
2.39374	15.3826
2.39263	15.3691
2.39153	15.3205
2.39043	15.2693
2.38932	15.3263
2.38822	15.4996
2.38712	15.4627
2.38603	15.304
2.38493	15.3774
2.38383	15.4105
2.38274	15.3159
2.38164	15.2607
2.38055	15.3921
2.37946	15.4977
2.37836	15.2478
2.37727	15.132
2.37618	15.2559
2.3751	15.4086
2.37401	15.3378
2.37292	15.2678
2.37184	15.3819
2.37075	15.2942
2.36967	15.1252
2.36859	15.1461
2.3675	15.2032
2.36642	15.259
2.36534	15.316
2.36427	15.2582
2.36319	15.2143
2.36211	15.3088
2.36104	15.3774
2.35996	15.1925
2.35889	15.1736
2.35781	15.2921
2.35674	15.3621
2.35567	15.3421
2.3546	15.21
2.35353	15.2487
2.35247	15.2068
2.3514	15.1349
2.35033	15.0991
2.34927	15.2267
2.3482	15.2704
2.34714	15.1596
2.34608	15.3023
2.34502	15.3713
2.34396	15.2521
2.3429	15.1812
2.34184	15.1968
2.34078	15.3164
2.33973	15.3787
2.33867	15.3665
2.33762	15.1643
2.33656	15.0896
2.33551	15.1581
2.33446	15.1863
2.33341	15.2058
2.33236	15.3364
2.33131	15.4223
2.33026	15.3546
2.32922	15.1808
2.32817	15.1414
2.32712	15.2687
2.32608	15.2675
2.32504	15.1132
2.324	15.1206
2.32295	15.2984
2.32191	15.3621
2.32087	15.3151
2.31984	15.3702
2.3188	15.3077
2.31776	15.2392
2.31673	15.3367
2.31569	15.3792
2.31466	15.2923
2.31362	15.3111
2.31259	15.3091
2.31156	15.2729
2.31053	15.2125
2.3095	15.1669
2.30847	15.146
2.30745	15.2303
2.30642	15.3534
2.3054	15.3948
2.30437	15.3779
2.30335	15.2336
2.30232	15.2
2.3013	15.2785
2.30028	15.2912
2.29926	15.1962
2.29824	15.2196
2.29722	15.2012
2.29621	15.27
2.29519	15.2699
2.29417	15.0996
2.29316	15.1653
2.29215	15.3195
2.29113	15.3673
2.29012	15.1856
2.28911	15.0714
2.2881	15.1215
2.28709	15.2554
2.28608	15.3057
2.28507	15.2907
2.28407	15.242
2.28306	15.1982
2.28206	15.2498
2.28105	15.3149
2.28005	15.2164
2.27905	15.1231
2.27805	15.1855
2.27705	15.292
2.27605	15.1306
2.27505	15.007
2.27405	15.046
2.27305	15.1204
2.27206	15.1648
2.27106	15.2485
2.27007	15.3264
2.26907	15.2696
2.26808	15.2204
2.26709	15.209
2.2661	15.0631
2.26511	15.0308
2.26412	15.084
2.26313	15.1334
2.26214	15.1901
2.26116	15.3569
2.26017	15.3156
2.25919	15.2735
2.2582	15.3222
2.25722	15.4117
2.25624	15.4105
2.25526	15.3568
2.25428	15.0901
2.2533	15.0077
2.25232	15.1833
2.25134	15.2686
2.25036	15.235
2.24939	15.2636
2.24841	15.3119
2.24744	15.2997
2.24646	15.2641
2.24549	15.2367
2.24452	15.3017
2.24355	15.2612
2.24257	15.2293
2.24161	15.2781
2.24064	15.1161
2.23967	15.0072
2.2387	15.1144
2.23774	15.2914
2.23677	15.2798
2.23581	15.2188
2.23484	15.1618
2.23388	15.0812
2.23292	15.1465
2.23196	15.2574
2.231	15.2992
2.23004	15.3356
2.22908	15.1947
2.22812	15.076
2.22716	15.1665
2.22621	15.214
2.22525	15.2624
2.2243	15.2611
2.22334	15.1136
2.22239	15.1957
2.22144	15.2007
2.22049	15.0559
2.21953	15.1067
2.21859	15.1272
2.21764	15.2177
2.21669	15.3911
2.21574	15.4205
2.21479	15.3193
2.21385	15.211
2.2129	15.1698
2.21196	15.2612
2.21102	15.2322
2.21007	15.2893
2.20913	15.4003
2.20819	15.2731
2.20725	15.1339
2.20631	15.1472
2.20537	15.1719
2.20444	15.2521
2.2035	15.2495
2.20256	15.1037
2.20163	15.1364
2.20069	15.2952
2.19976	15.2857
2.19883	15.1477
2.19789	15.1601
2.19696	15.1877
2.19603	15.2521
2.1951	15.3213
2.19417	15.3784
2.19325	15.3397
2.19232	15.3135
2.19139	15.3037
2.19047	15.2324
2.18954	15.1968
2.18862	15.2771
2.18769	15.3467
2.18677	15.4224
2.18585	15.2232
2.18493	15.1342
2.18401	15.15
2.18309	15.1273
2.18217	15.1428
2.18125	15.2049
2.18033	15.2457
2.17942	15.2947
2.1785	15.2409
2.17759	15.3204
2.17667	15.3978
2.17576	15.4396
2.17485	15.3645
2.17393	15.3619
2.17302	15.2764
2.17211	14.9992
2.1712	14.8404
2.17029	14.9653
2.16939	15.2239
2.16848	15.398
2.16757	15.3249
2.16667	15.278
2.16576	15.2166
2.16486	15.1546
2.16395	15.2052
2.16305	15.2402
2.16215	15.2913
2.16125	15.3595
2.16035	15.3407
2.15945	15.1782
2.15855	15.1634
2.15765	15.2456
2.15675	15.3057
2.15586	15.1628
2.15496	14.9567
2.15406	15.0229
2.15317	15.1411
2.15228	14.9817
2.15138	15.0591
2.15049	15.1818
2.1496	15.247
2.14871	15.2525
2.14782	15.2364
2.14693	15.0695
2.14604	14.8074
2.14515	14.8945
2.14427	15.1799
2.14338	14.9984
2.14249	14.8205
2.14161	15.1532
2.14072	15.4067
2.13984	15.1345
2.13896	14.8584
2.13808	15.1483
2.13719	15.4102
2.13631	15.2503
2.13543	15.06
2.13455	15.0287
2.13368	15.0198
2.1328	15.0442
2.13192	15.0019
2.13105	14.9151
2.13017	14.9171
2.1293	15.1328
2.12842	15.5582
2.12755	15.5068
2.12668	15.2496
2.1258	15.1967
2.12493	15.1887
2.12406	15.0596
2.12319	15.1007
2.12232	15.3066
2.12145	15.255
2.12059	15.0574
2.11972	15.207
2.11885	15.0791
2.11799	14.8769
2.11712	15.1023
2.11626	15.2842
2.1154	15.3825
2.11453	15.3468
2.11367	15.249
2.11281	15.2379
2.11195	15.2609
2.11109	15.2953
2.11023	15.3148
2.10937	15.152
2.10851	15.0422
2.10766	15.2076
2.1068	15.3854
2.10594	15.3398
2.10509	15.2993
2.10423	15.1476
2.10338	15.0162
2.10253	14.9659
2.10168	15.1722
2.10082	15.3561
2.09997	15.3079
2.09912	15.2914
2.09827	15.4025
2.09742	15.3419
2.09658	15.2982
2.09573	15.3413
2.09488	15.2223
2.09404	14.9479
2.09319	15.0477
2.09235	15.2291
2.0915	15.1981
2.09066	15.3142
2.08982	15.2996
2.08897	15.1092
2.08813	15.1324
2.08729	15.379
2.08645	15.5329
2.08561	15.2625
2.08477	15.1355
2.08394	15.3976
2.0831	15.2525
2.08226	15.1932
2.08143	15.4141
2.08059	15.5809
2.07976	15.4015
2.07892	15.3593
2.07809	15.5646
2.07726	15.691
2.07643	15.4361
2.07559	15.0714
2.07476	15.0404
2.07393	15.3125
2.0731	15.2554
2.07228	15.4332
2.07145	15.5722
2.07062	15.2849
2.06979	14.8889
2.06897	14.7603
2.06814	14.9374
2.06732	15.2694
2.06649	15.3435
2.06567	15.1534
2.06485	14.9401
2.06403	14.8462
2.0632	14.9753
2.06238	15.3921
2.06156	15.4477
2.06074	15.3733
2.05993	15.4227
2.05911	15.5202
2.05829	15.4602
2.05747	15.0947
2.05666	14.9789
2.05584	15.1771
2.05503	15.4338
2.05421	15.5903
2.0534	15.5386
2.05259	15.3094
2.05177	15.2404
2.05096	15.2922
2.05015	15.281
2.04934	15.0839
2.04853	15.1302
2.04772	15.1527
2.04691	15.1469
2.04611	15.0476
2.0453	14.9291
2.04449	14.9648
2.04369	15.2002
2.04288	15.3904
2.04208	15.3738
2.04127	15.1641
2.04047	15.0893
2.03967	14.9846
2.03886	14.9164
2.03806	15.0651
2.03726	14.9716
2.03646	14.8749
2.03566	15.0994
2.03486	15.2228
2.03407	14.98
2.03327	15.1159
2.03247	15.2226
2.03167	15.1085
2.03088	14.9909
2.03008	15.0563
2.02929	15.1471
2.0285	15.0947
2.0277	15.1057
2.02691	15.0981
2.02612	15.0397
2.02533	14.9952
2.02453	15.0616
2.02374	15.1607
2.02295	15.4238
2.02217	15.4048
2.02138	15.0886
2.02059	14.783
2.0198	15.0064
2.01902	15.2801
2.01823	15.3018
2.01744	15.3103
2.01666	15.2587
2.01588	15.1617
2.01509	15.2637
2.01431	15.1648
2.01353	15.1608
2.01275	15.2429
2.01196	15.4317
2.01118	15.4896
2.0104	15.1684
2.00963	15.1829
2.00885	15.3857
2.00807	15.3499
2.00729	15.0231
2.00651	14.9958
2.00574	15.3209
2.00496	15.293
2.00419	15.0098
2.00341	14.9491
2.00264	15.1192
2.00187	15.1789
2.00109	15.1563
2.00032	15.158
