Name: Marcasite FeS_2
Type: Mineral
Class: Sulfides
Subclass: 
Particle Size: 125-500um
Sample No.: S-10A
Owner: JPL
Wavelength range: IR
Origin: USA, Indiana, Jasper County, Rensselaer, Pleasant Ridge Quarry
Collected by Ward's
Description: 





Measurement: Hemispherical reflectance
First Column: X
Second Column: Y
X Units:  Wavelength (micrometers)
Y Units:  Reflectance (percent)
First X Value: 15.3853
Last X Value: 2.00032
Number of X Values: 2256
Additional information: s10aa.txt
 
15.3853	22.3932
15.3397	22.4001
15.2945	22.642
15.2495	22.5223
15.2048	22.2366
15.1603	22.0223
15.1161	21.6056
15.0722	21.1757
15.0285	21.255
14.9851	21.2248
14.9419	21.3026
14.8989	21.8316
14.8563	22.4547
14.8138	22.7624
14.7716	22.8322
14.7296	22.848
14.6879	22.8379
14.6464	22.9722
14.6052	22.9468
14.5641	22.9125
14.5233	22.8417
14.4828	22.9426
14.4424	23.1828
14.4023	23.0683
14.3624	22.922
14.3227	23.0345
14.2833	22.9128
14.244	22.4659
14.205	22.4745
14.1662	22.7535
14.1276	22.7171
14.0892	22.6211
14.051	22.5649
14.0131	22.4512
13.9753	22.3776
13.9377	22.3457
13.9004	22.2635
13.8632	22.1851
13.8262	22.1615
13.7895	22.1968
13.7529	22.1643
13.7165	22.0417
13.6803	21.8366
13.6443	21.7669
13.6085	21.6697
13.5729	21.6056
13.5374	21.4723
13.5022	21.2728
13.4671	21.2251
13.4322	21.2146
13.3975	20.9599
13.363	20.5768
13.3286	20.3596
13.2944	20.2191
13.2604	20.1122
13.2266	20.099
13.193	19.8633
13.1595	19.5459
13.1262	19.3045
13.093	19.0314
13.06	18.7654
13.0272	18.5898
12.9946	18.3517
12.9621	18.084
12.9298	17.7966
12.8976	17.534
12.8656	17.2366
12.8337	17.0259
12.8021	16.7991
12.7705	16.3858
12.7391	16.2335
12.7079	16.1788
12.6769	16.1294
12.6459	15.8723
12.6152	15.9284
12.5845	16.0913
12.5541	16.1511
12.5238	16.1246
12.4936	15.9648
12.4635	15.9086
12.4337	15.9883
12.4039	16.0503
12.3743	15.8417
12.3448	15.6639
12.3155	15.7694
12.2863	15.9389
12.2573	15.9974
12.2284	16.1349
12.1996	16.1644
12.171	16.1082
12.1425	16.1179
12.1141	16.1694
12.0859	16.3397
12.0578	16.4966
12.0298	16.4013
12.0019	16.4107
11.9742	16.4354
11.9466	16.3724
11.9192	16.3537
11.8918	16.3512
11.8646	16.2908
11.8375	16.2198
11.8106	16.3484
11.7837	16.3701
11.757	16.3037
11.7304	16.2731
11.7039	16.2209
11.6776	16.2918
11.6513	16.1754
11.6252	15.936
11.5992	15.7522
11.5733	15.7108
11.5475	15.709
11.5219	15.6498
11.4963	15.4994
11.4709	15.3742
11.4455	15.2891
11.4203	15.3019
11.3952	15.272
11.3702	15.1723
11.3454	15.2183
11.3206	15.3517
11.2959	15.4751
11.2714	15.5217
11.2469	15.654
11.2226	15.8851
11.1983	16.0019
11.1742	16.1156
11.1502	16.3191
11.1263	16.4786
11.1024	16.6206
11.0787	16.793
11.0551	16.9416
11.0316	17.2308
11.0081	17.5308
10.9848	17.732
10.9616	17.9378
10.9385	18.1253
10.9154	18.2228
10.8925	18.3654
10.8697	18.5313
10.8469	18.7203
10.8243	18.9477
10.8017	19.0671
10.7793	19.1223
10.7569	19.154
10.7346	19.28
10.7125	19.4487
10.6904	19.5793
10.6684	19.5396
10.6465	19.5202
10.6247	19.4766
10.6029	19.2662
10.5813	19.1414
10.5597	19.1739
10.5383	19.172
10.5169	19.0766
10.4956	18.985
10.4744	18.885
10.4533	18.748
10.4323	18.5584
10.4113	18.4101
10.3904	18.3063
10.3697	18.3022
10.349	18.2317
10.3284	18.1375
10.3078	17.9528
10.2874	17.8738
10.267	17.887
10.2467	17.808
10.2265	17.7189
10.2064	17.6794
10.1863	17.5978
10.1663	17.5154
10.1464	17.5584
10.1266	17.4925
10.1069	17.3916
10.0872	17.3699
10.0676	17.38
10.0481	17.4776
10.0287	17.3663
10.0093	17.203
9.99005	16.9746
9.97084	16.7666
9.95169	16.5476
9.93263	16.2503
9.91364	15.7962
9.89472	15.2599
9.87587	14.6331
9.8571	14.1483
9.83839	14.153
9.81976	14.6388
9.80119	15.4306
9.78271	16.055
9.76428	16.3985
9.74592	16.4233
9.72764	16.2147
9.70943	16.0375
9.69128	16.0096
9.6732	15.8933
9.65518	15.6773
9.63724	15.4171
9.61935	15.2258
9.60155	15.1051
9.5838	14.9135
9.56611	14.8364
9.5485	14.6567
9.53094	14.3595
9.51345	14.202
9.49604	14.0761
9.47867	13.8648
9.46137	13.5604
9.44414	13.3121
9.42697	13.1431
9.40986	12.9728
9.39281	12.6574
9.37583	12.3142
9.35891	12.1306
9.34204	11.9583
9.32524	11.6545
9.3085	11.49
9.29182	11.3453
9.27519	11.2156
9.25863	11.2281
9.24213	11.5013
9.22568	11.6741
9.2093	11.6008
9.19297	11.5802
9.17669	11.7272
9.16048	11.7857
9.14433	11.8053
9.12823	11.9378
9.11218	11.9912
9.0962	11.8581
9.08027	11.8671
9.06439	11.9635
9.04858	11.8295
9.03281	11.7144
9.0171	11.7082
9.00145	11.6457
8.98585	11.5835
8.9703	11.5019
8.9548	11.5391
8.93937	11.5308
8.92398	11.4146
8.90865	11.4425
8.89337	11.4525
8.87814	11.4798
8.86296	11.672
8.84784	11.8277
8.83277	11.9505
8.81774	12.0087
8.80277	12.1039
8.78786	12.2282
8.77298	12.4417
8.75816	12.6094
8.7434	12.7502
8.72868	12.9676
8.714	13.1534
8.69938	13.3123
8.68481	13.6048
8.67029	13.917
8.65581	14.0442
8.64139	14.1847
8.62701	14.4122
8.61268	14.4886
8.5984	14.4661
8.58416	14.527
8.56997	14.4951
8.55583	14.5155
8.54174	14.691
8.52769	14.819
8.51368	14.7784
8.49973	14.7523
8.48582	14.7668
8.47195	14.7387
8.45813	14.8804
8.44436	15.0556
8.43062	15.0735
8.41693	15.102
8.4033	15.259
8.3897	15.4105
8.37614	15.4766
8.36264	15.6271
8.34917	15.8718
8.33574	15.9576
8.32236	16.166
8.30903	16.3752
8.29573	16.3412
8.28248	16.5136
8.26927	16.7647
8.2561	16.8881
8.24298	17.0195
8.2299	17.1772
8.21685	17.4209
8.20385	17.644
8.19089	17.8753
8.17797	18.0557
8.16509	18.1407
8.15225	18.3207
8.13946	18.5956
8.1267	18.9079
8.11398	19.2066
8.10131	19.4196
8.08867	19.5814
8.07606	19.6176
8.0635	19.7777
8.05099	20.0417
8.0385	20.0946
8.02606	20.0988
8.01366	20.2437
8.00129	20.3469
7.98896	20.3726
7.97667	20.5121
7.96442	20.6722
7.9522	20.7506
7.94002	20.7852
7.92788	20.7889
7.91578	20.8307
7.90371	20.8858
7.89168	20.8936
7.87969	20.8986
7.86773	21.0084
7.85581	21.078
7.84392	21.0826
7.83207	21.073
7.82026	21.0701
7.80849	21.0807
7.79674	21.0725
7.78503	20.9895
7.77337	20.9649
7.76173	21.0165
7.75012	21.0715
7.73856	21.0829
7.72703	21.0875
7.71553	21.0771
7.70406	21.0233
7.69263	20.9627
7.68123	20.9199
7.66987	20.8749
7.65855	20.907
7.64725	20.8628
7.63598	20.7397
7.62475	20.7251
7.61356	20.7441
7.60239	20.7191
7.59126	20.7279
7.58017	20.7673
7.5691	20.7314
7.55806	20.7111
7.54707	20.7276
7.5361	20.6911
7.52516	20.6311
7.51425	20.5774
7.50338	20.5585
7.49253	20.5336
7.48172	20.4771
7.47094	20.4702
7.46019	20.4868
7.44947	20.4609
7.43879	20.5119
7.42813	20.4628
7.4175	20.3814
7.4069	20.334
7.39634	20.2536
7.3858	20.2309
7.37529	20.2595
7.36482	20.2143
7.35437	20.2033
7.34396	20.2363
7.33357	20.2509
7.32321	20.1896
7.31288	20.1996
7.30258	20.1401
7.29231	20.0674
7.28207	20.127
7.27185	20.1598
7.26167	20.0138
7.25152	19.977
7.24139	19.9776
7.23129	19.9489
7.22122	19.9482
7.21117	20.1035
7.20116	20.0152
7.19117	19.9199
7.18121	20.0132
7.17128	20.0822
7.16137	19.9359
7.1515	19.8903
7.14164	19.8085
7.13182	19.7061
7.12203	19.8033
7.11225	19.817
7.10251	19.6311
7.0928	19.5455
7.08311	19.5539
7.07344	19.52
7.06381	19.4918
7.0542	19.7096
7.04461	19.8369
7.03506	19.5203
7.02552	19.41
7.01601	19.3137
7.00653	19.2341
6.99708	19.2884
6.98765	19.3298
6.97824	19.338
6.96886	19.5068
6.95951	19.6574
6.95018	19.219
6.94087	18.972
6.9316	19.0559
6.92234	19.0755
6.91311	19.0398
6.90391	18.9611
6.89473	18.7404
6.88557	18.7056
6.87644	18.8918
6.86733	19.4805
6.85824	19.332
6.84918	18.7416
6.84015	18.4358
6.83114	18.4393
6.82215	18.4356
6.81319	18.247
6.80424	18.1704
6.79532	18.437
6.78643	18.5106
6.77756	18.1713
6.76871	17.8372
6.75989	17.7026
6.75109	17.7092
6.74231	17.5794
6.73355	17.5453
6.72482	17.6741
6.71611	17.8056
6.70742	17.6593
6.69875	17.4013
6.69011	17.6216
6.68149	17.8979
6.67289	17.7296
6.66431	17.5776
6.65576	17.5826
6.64722	18.0534
6.63871	18.7127
6.63022	18.449
6.62175	17.9991
6.61331	17.8709
6.60488	17.8113
6.59648	17.9842
6.5881	18.2062
6.57974	18.4856
6.5714	18.7023
6.56308	18.3662
6.55478	18.3102
6.54651	18.1997
6.53825	18.0574
6.53001	18.1895
6.5218	18.3613
6.51361	18.1194
6.50544	18.2797
6.49729	19.0139
6.48915	19.093
6.48104	18.5526
6.47295	18.2448
6.46488	18.0201
6.45683	17.984
6.4488	18.0689
6.44079	18.0906
6.4328	18.143
6.42482	18.379
6.41687	19.13
6.40894	18.9074
6.40103	17.944
6.39314	17.659
6.38526	17.6838
6.37741	17.7859
6.36957	17.9014
6.36176	17.6835
6.35396	17.6375
6.34618	17.9625
6.33843	17.7015
6.33069	17.2558
6.32297	17.2179
6.31527	17.1715
6.30758	17.0526
6.29992	17.0413
6.29227	17.0335
6.28465	16.9328
6.27704	16.9083
6.26945	16.8269
6.26188	16.6978
6.25432	16.5937
6.24679	16.5861
6.23927	16.5826
6.23177	16.5181
6.22429	16.3921
6.21683	16.3685
6.20938	16.299
6.20195	16.2114
6.19454	16.2631
6.18715	16.4735
6.17978	16.1126
6.17242	15.7929
6.16508	15.9245
6.15776	15.9465
6.15045	15.7404
6.14317	15.6375
6.1359	15.493
6.12864	15.4347
6.12141	15.813
6.11419	16.1986
6.10699	15.8024
6.0998	15.5169
6.09263	15.4381
6.08549	15.4122
6.07835	15.7186
6.07123	15.8531
6.06413	15.6288
6.05705	15.8893
6.04998	16.6829
6.04293	16.2194
6.0359	15.5989
6.02888	15.5413
6.02187	15.6965
6.01489	15.8849
6.00792	15.9001
6.00096	15.9545
5.99403	16.2039
5.98711	16.2598
5.9802	16.1646
5.97331	16.4002
5.96644	16.5143
5.95958	16.3286
5.95274	16.4143
5.94591	16.7194
5.9391	17.4322
5.9323	17.3227
5.92552	16.8112
5.91876	16.7981
5.91201	16.8212
5.90528	16.9894
5.89856	17.5066
5.89186	17.5029
5.88517	17.7526
5.8785	17.8687
5.87184	17.2842
5.8652	17.3158
5.85857	17.3011
5.85196	17.2575
5.84536	17.1603
5.83878	17.1846
5.83221	17.418
5.82566	17.8152
5.81912	17.7723
5.81259	17.2217
5.80608	17.0631
5.79959	17.0864
5.79311	17.0995
5.78665	17.2407
5.78019	17.3422
5.77376	17.5352
5.76734	17.9677
5.76093	17.6775
5.75453	17.3282
5.74815	17.411
5.74179	17.3203
5.73543	17.2284
5.7291	17.1835
5.72277	17.3305
5.71646	17.4677
5.71017	17.4858
5.70389	17.2405
5.69762	17.1534
5.69136	17.1609
5.68513	17.0752
5.6789	17.168
5.67268	17.2367
5.66648	17.1079
5.6603	17.1452
5.65413	17.2049
5.64797	17.2864
5.64182	17.4038
5.63569	17.1964
5.62957	16.9995
5.62347	16.9445
5.61737	16.9843
5.61129	17.0111
5.60522	17.1374
5.59917	17.1654
5.59313	17.0521
5.5871	17.21
5.58109	17.4798
5.57509	17.3941
5.5691	17.123
5.56312	17.1384
5.55716	17.1992
5.55121	17.2036
5.54528	17.241
5.53935	17.2146
5.53344	17.2363
5.52754	17.2898
5.52166	17.303
5.51578	17.271
5.50992	17.2215
5.50407	17.2783
5.49823	17.3446
5.49241	17.3583
5.4866	17.3261
5.4808	17.464
5.47501	17.5481
5.46923	17.6227
5.46347	17.5863
5.45772	17.4429
5.45198	17.3946
5.44625	17.4665
5.44054	17.5169
5.43484	17.4613
5.42914	17.514
5.42347	17.7407
5.4178	17.6897
5.41214	17.5955
5.4065	17.6102
5.40087	17.5163
5.39525	17.4295
5.38964	17.4533
5.38404	17.5216
5.37846	17.5616
5.37288	17.5514
5.36732	17.5272
5.36177	17.5873
5.35623	17.7511
5.35071	17.9256
5.34519	17.7721
5.33968	17.6343
5.33419	17.5761
5.32871	17.5442
5.32324	17.6042
5.31778	17.5485
5.31233	17.4466
5.30689	17.4905
5.30147	17.5524
5.29605	17.6372
5.29065	17.6756
5.28525	17.6608
5.27987	17.6919
5.2745	17.6746
5.26914	17.6459
5.26379	17.6049
5.25845	17.5501
5.25312	17.5371
5.24781	17.5785
5.2425	17.6608
5.23721	17.6657
5.23192	17.5822
5.22665	17.4692
5.22138	17.4455
5.21613	17.5931
5.21089	17.6689
5.20566	17.6039
5.20044	17.5644
5.19522	17.4935
5.19002	17.5014
5.18483	17.5196
5.17965	17.5319
5.17448	17.5207
5.16933	17.499
5.16418	17.4985
5.15904	17.4484
5.15391	17.4941
5.14879	17.6006
5.14368	17.5928
5.13859	17.5998
5.1335	17.5692
5.12842	17.5248
5.12335	17.5375
5.1183	17.5697
5.11325	17.5582
5.10821	17.5025
5.10318	17.4988
5.09817	17.4985
5.09316	17.4518
5.08816	17.4087
5.08317	17.5408
5.07819	17.5746
5.07322	17.5379
5.06826	17.519
5.06331	17.5219
5.05837	17.5488
5.05344	17.5836
5.04852	17.5162
5.04361	17.4231
5.03871	17.4028
5.03382	17.4911
5.02894	17.5367
5.02406	17.5445
5.0192	17.4723
5.01435	17.4104
5.0095	17.4336
5.00467	17.4475
4.99984	17.5166
4.99502	17.4765
4.99021	17.4105
4.98542	17.4385
4.98063	17.4131
4.97585	17.3964
4.97108	17.4927
4.96632	17.6058
4.96156	17.5465
4.95682	17.4464
4.95209	17.3888
4.94736	17.3939
4.94264	17.4247
4.93794	17.4612
4.93324	17.4974
4.92855	17.4994
4.92387	17.5158
4.9192	17.5309
4.91453	17.4833
4.90988	17.4406
4.90524	17.4509
4.9006	17.4533
4.89597	17.4756
4.89135	17.5311
4.88674	17.5634
4.88214	17.5592
4.87755	17.5317
4.87296	17.5442
4.86839	17.529
4.86382	17.513
4.85926	17.5254
4.85471	17.5622
4.85017	17.5328
4.84564	17.477
4.84111	17.4252
4.8366	17.4483
4.83209	17.5265
4.82759	17.5116
4.8231	17.5015
4.81862	17.586
4.81415	17.5547
4.80968	17.4979
4.80522	17.4957
4.80077	17.5065
4.79633	17.6042
4.7919	17.6364
4.78747	17.6359
4.78306	17.5792
4.77865	17.5391
4.77425	17.5075
4.76986	17.5519
4.76547	17.6344
4.7611	17.6231
4.75673	17.5547
4.75237	17.5006
4.74802	17.5458
4.74367	17.6458
4.73934	17.6318
4.73501	17.6113
4.73069	17.5717
4.72638	17.4954
4.72207	17.5228
4.71777	17.5919
4.71348	17.598
4.7092	17.6283
4.70493	17.6823
4.70066	17.6252
4.69641	17.5423
4.69216	17.5022
4.68791	17.5033
4.68368	17.5167
4.67945	17.5801
4.67523	17.6526
4.67102	17.6581
4.66682	17.5843
4.66262	17.5691
4.65843	17.5607
4.65425	17.559
4.65007	17.5537
4.64591	17.5129
4.64175	17.5643
4.6376	17.6338
4.63345	17.6733
4.62932	17.6784
4.62519	17.6345
4.62106	17.565
4.61695	17.5411
4.61284	17.5932
4.60874	17.6868
4.60465	17.6492
4.60056	17.593
4.59648	17.6345
4.59241	17.6973
4.58835	17.6947
4.58429	17.6581
4.58024	17.5855
4.5762	17.5162
4.57216	17.5523
4.56814	17.5377
4.56411	17.575
4.5601	17.6543
4.55609	17.66
4.55209	17.6521
4.5481	17.6083
4.54411	17.6107
4.54013	17.6303
4.53616	17.6447
4.5322	17.6136
4.52824	17.581
4.52429	17.6044
4.52034	17.5789
4.51641	17.5966
4.51247	17.6678
4.50855	17.6158
4.50463	17.5486
4.50072	17.5865
4.49682	17.6544
4.49292	17.7074
4.48903	17.7115
4.48515	17.6428
4.48127	17.6236
4.4774	17.6486
4.47354	17.6281
4.46968	17.5597
4.46584	17.5549
4.46199	17.5884
4.45815	17.7108
4.45432	17.7703
4.4505	17.7251
4.44668	17.7412
4.44287	17.7188
4.43907	17.6605
4.43527	17.6365
4.43148	17.6302
4.4277	17.6229
4.42392	17.672
4.42015	17.7258
4.41638	17.7256
4.41262	17.6536
4.40887	17.6417
4.40513	17.6933
4.40139	17.6404
4.39765	17.6476
4.39393	17.6595
4.39021	17.6113
4.38649	17.6476
4.38278	17.7005
4.37908	17.7774
4.37539	17.7541
4.3717	17.6529
4.36801	17.5827
4.36434	17.5718
4.36067	17.6091
4.357	17.6998
4.35335	17.7118
4.34969	17.6316
4.34605	17.5769
4.34241	17.5398
4.33877	17.4722
4.33514	17.4873
4.33152	17.4903
4.32791	17.5216
4.3243	17.5795
4.32069	17.53
4.3171	17.5392
4.31351	17.565
4.30992	17.4768
4.30634	17.4646
4.30277	17.4262
4.2992	17.4276
4.29564	17.4072
4.29208	17.3817
4.28853	17.4029
4.28499	17.4364
4.28145	17.3984
4.27792	17.3795
4.27439	17.3218
4.27087	17.3404
4.26735	17.4235
4.26384	17.4834
4.26034	17.5285
4.25684	17.5063
4.25335	17.4618
4.24986	17.4514
4.24638	17.4034
4.24291	17.3197
4.23944	17.2276
4.23598	17.2061
4.23252	17.1865
4.22906	17.1639
4.22562	17.2268
4.22218	17.3586
4.21874	17.4078
4.21531	17.4493
4.21189	17.5776
4.20847	17.663
4.20506	17.6417
4.20165	17.6616
4.19825	17.6646
4.19485	17.6046
4.19146	17.6167
4.18807	17.6632
4.18469	17.6981
4.18132	17.6776
4.17795	17.697
4.17458	17.7446
4.17123	17.6596
4.16787	17.5482
4.16453	17.583
4.16118	17.6019
4.15785	17.5087
4.15451	17.5919
4.15119	17.6712
4.14787	17.6778
4.14455	17.6935
4.14124	17.631
4.13794	17.5977
4.13464	17.6244
4.13134	17.5947
4.12805	17.6231
4.12477	17.6888
4.12149	17.6962
4.11822	17.6593
4.11495	17.6416
4.11168	17.5913
4.10843	17.5844
4.10517	17.5806
4.10192	17.498
4.09868	17.4786
4.09545	17.5174
4.09221	17.5206
4.08899	17.5389
4.08576	17.5254
4.08255	17.5111
4.07933	17.4931
4.07613	17.5008
4.07292	17.5975
4.06973	17.6107
4.06654	17.5603
4.06335	17.53
4.06017	17.4942
4.05699	17.4842
4.05382	17.5012
4.05065	17.5176
4.04749	17.493
4.04433	17.4757
4.04118	17.475
4.03803	17.4943
4.03489	17.4474
4.03175	17.4148
4.02862	17.494
4.02549	17.4729
4.02237	17.4715
4.01925	17.4995
4.01614	17.4742
4.01303	17.4161
4.00993	17.3665
4.00683	17.3842
4.00373	17.4014
4.00064	17.4715
3.99756	17.4644
3.99448	17.3916
3.9914	17.4213
3.98833	17.4418
3.98527	17.3455
3.98221	17.3097
3.97915	17.3508
3.9761	17.3928
3.97305	17.3778
3.97001	17.374
3.96697	17.3924
3.96394	17.4225
3.96091	17.4292
3.95789	17.3662
3.95487	17.3736
3.95186	17.3813
3.94885	17.3452
3.94584	17.3203
3.94284	17.349
3.93984	17.2972
3.93685	17.2068
3.93386	17.2259
3.93088	17.2201
3.9279	17.2098
3.92493	17.2621
3.92196	17.297
3.919	17.3333
3.91604	17.3223
3.91308	17.1991
3.91013	17.1967
3.90718	17.277
3.90424	17.2549
3.9013	17.2239
3.89837	17.3
3.89544	17.3106
3.89252	17.2675
3.8896	17.2482
3.88668	17.113
3.88377	17.0456
3.88086	17.1714
3.87796	17.2054
3.87506	17.1287
3.87217	17.0893
3.86928	17.1035
3.86639	17.1264
3.86351	17.0492
3.86064	17.0072
3.85776	17.0472
3.8549	17.0293
3.85203	17.0129
3.84917	16.9924
3.84631	17.0455
3.84346	17.0512
3.84062	17.0335
3.83777	17.069
3.83494	17.0799
3.8321	17.0942
3.82927	17.0387
3.82644	17.0035
3.82362	16.9552
3.82081	16.9155
3.81799	16.8993
3.81518	16.9585
3.81238	16.9919
3.80958	16.8958
3.80678	16.874
3.80399	16.8567
3.8012	16.892
3.79841	16.91
3.79563	16.8007
3.79286	16.7895
3.79008	16.8551
3.78731	16.8956
3.78455	16.8359
3.78179	16.7286
3.77903	16.6637
3.77628	16.691
3.77353	16.8225
3.77079	16.7962
3.76805	16.7587
3.76531	16.784
3.76258	16.8059
3.75985	16.8298
3.75713	16.7721
3.7544	16.6778
3.75169	16.6367
3.74898	16.6983
3.74627	16.6582
3.74356	16.6398
3.74086	16.6395
3.73816	16.5967
3.73547	16.5979
3.73278	16.602
3.7301	16.6183
3.72741	16.6056
3.72474	16.5376
3.72206	16.5069
3.71939	16.4529
3.71673	16.485
3.71406	16.5555
3.71141	16.4675
3.70875	16.4152
3.7061	16.4641
3.70345	16.4191
3.70081	16.3095
3.69817	16.2126
3.69553	16.2587
3.6929	16.305
3.69027	16.3481
3.68765	16.2733
3.68503	16.2649
3.68241	16.3031
3.6798	16.258
3.67719	16.2906
3.67458	16.335
3.67198	16.2094
3.66938	16.1204
3.66678	16.1429
3.66419	16.1771
3.66161	16.123
3.65902	16.1314
3.65644	16.1271
3.65387	16.0366
3.65129	15.9721
3.64872	15.9166
3.64616	15.9033
3.64359	15.9211
3.64103	15.9768
3.63848	16
3.63593	15.96
3.63338	15.8921
3.63084	15.8682
3.6283	15.8692
3.62576	15.909
3.62322	15.8689
3.62069	15.7279
3.61817	15.6668
3.61564	15.6503
3.61312	15.6289
3.61061	15.6903
3.6081	15.6762
3.60559	15.6263
3.60308	15.6408
3.60058	15.635
3.59808	15.5988
3.59558	15.6285
3.59309	15.6762
3.59061	15.6133
3.58812	15.4952
3.58564	15.4495
3.58316	15.4078
3.58069	15.3363
3.57822	15.2764
3.57575	15.255
3.57328	15.3327
3.57082	15.4024
3.56836	15.4071
3.56591	15.3354
3.56346	15.2792
3.56101	15.2122
3.55857	15.151
3.55613	15.0679
3.55369	15.0982
3.55126	15.1022
3.54883	15.0548
3.5464	15.0272
3.54397	15.1518
3.54155	15.1389
3.53914	15.0071
3.53672	14.9434
3.53431	14.9823
3.5319	15.0023
3.5295	14.8835
3.5271	14.8342
3.5247	14.8201
3.52231	14.7365
3.51991	14.6817
3.51753	14.8027
3.51514	14.9591
3.51276	14.855
3.51038	14.7304
3.50801	14.734
3.50563	14.6449
3.50327	14.624
3.5009	14.6959
3.49854	14.7431
3.49618	14.6654
3.49382	14.5578
3.49147	14.5766
3.48912	14.5232
3.48677	14.4289
3.48443	14.4829
3.48209	14.5025
3.47975	14.4575
3.47742	14.5077
3.47509	14.4777
3.47276	14.3729
3.47044	14.3075
3.46812	14.2656
3.4658	14.3359
3.46348	14.395
3.46117	14.4117
3.45886	14.3052
3.45656	14.2509
3.45425	14.1977
3.45195	14.1886
3.44966	14.2357
3.44736	14.2406
3.44507	14.1342
3.44279	14.0826
3.4405	14.0254
3.43822	13.9072
3.43594	13.8804
3.43367	13.9539
3.43139	13.9537
3.42912	13.8691
3.42686	13.8415
3.42459	13.8458
3.42233	13.8753
3.42007	13.8785
3.41782	13.8124
3.41557	13.8395
3.41332	13.7976
3.41108	13.6843
3.40883	13.7045
3.40659	13.7621
3.40435	13.7202
3.40212	13.6553
3.39989	13.6381
3.39766	13.554
3.39544	13.4553
3.39322	13.4862
3.391	13.4945
3.38878	13.3503
3.38657	13.2568
3.38436	13.267
3.38215	13.3455
3.37994	13.1906
3.37774	13.0099
3.37554	13.0657
3.37335	13.0707
3.37115	13.0244
3.36896	13.1048
3.36678	13.1409
3.36459	13.0929
3.36241	13.0497
3.36023	12.8963
3.35805	12.8129
3.35588	12.8441
3.35371	12.8801
3.35154	12.8753
3.34938	12.8055
3.34721	12.7231
3.34505	12.6589
3.3429	12.6436
3.34074	12.6497
3.33859	12.5644
3.33644	12.5262
3.3343	12.5599
3.33215	12.5235
3.33001	12.5289
3.32788	12.3891
3.32574	12.2515
3.32361	12.2621
3.32148	12.2751
3.31936	12.1954
3.31723	12.0644
3.31511	12.0826
3.31299	12.0921
3.31088	12.0314
3.30876	11.9871
3.30665	11.9224
3.30455	11.8151
3.30244	11.7552
3.30034	11.6563
3.29824	11.655
3.29614	11.7672
3.29405	11.735
3.29196	11.6626
3.28987	11.6082
3.28778	11.5752
3.2857	11.5424
3.28362	11.4144
3.28154	11.4105
3.27946	11.4202
3.27739	11.3548
3.27532	11.2964
3.27325	11.2526
3.27119	11.2716
3.26913	11.1994
3.26707	11.0605
3.26501	10.9454
3.26295	10.9127
3.2609	10.8875
3.25885	10.9046
3.2568	10.7662
3.25476	10.6863
3.25272	10.6212
3.25068	10.6014
3.24864	10.6436
3.24661	10.5384
3.24458	10.4935
3.24255	10.4276
3.24052	10.4093
3.2385	10.3671
3.23648	10.1866
3.23446	10.1313
3.23244	10.1901
3.23043	10.1666
3.22841	10.0703
3.2264	10.0045
3.2244	9.97169
3.22239	9.90902
3.22039	9.80418
3.21839	9.69953
3.2164	9.61381
3.2144	9.57656
3.21241	9.61115
3.21042	9.7063
3.20844	9.64501
3.20645	9.51012
3.20447	9.48518
3.20249	9.44071
3.20051	9.25742
3.19854	9.25417
3.19657	9.2362
3.1946	9.22017
3.19263	9.18466
3.19067	9.07962
3.1887	8.97345
3.18674	8.86624
3.18479	8.91699
3.18283	8.92551
3.18088	8.76629
3.17893	8.83167
3.17698	9.06721
3.17504	9.14312
3.17309	8.93221
3.17115	8.81011
3.16921	8.68954
3.16728	8.6242
3.16534	8.69929
3.16341	8.69807
3.16148	8.65169
3.15956	8.63655
3.15763	8.64651
3.15571	8.62109
3.15379	8.56169
3.15187	8.6026
3.14996	8.5843
3.14805	8.54385
3.14614	8.49188
3.14423	8.36834
3.14232	8.36135
3.14042	8.43629
3.13852	8.52609
3.13662	8.46284
3.13472	8.40012
3.13283	8.4229
3.13094	8.46337
3.12905	8.56997
3.12716	8.57876
3.12528	8.45839
3.12339	8.2999
3.12151	8.23948
3.11964	8.23156
3.11776	8.26429
3.11589	8.43591
3.11401	8.61073
3.11214	8.60629
3.11028	8.55716
3.10841	8.55654
3.10655	8.59037
3.10469	8.547
3.10283	8.43589
3.10098	8.35761
3.09912	8.41897
3.09727	8.54231
3.09542	8.42995
3.09358	8.36784
3.09173	8.46648
3.08989	8.55836
3.08805	8.49741
3.08621	8.35127
3.08437	8.34021
3.08254	8.51097
3.08071	8.54288
3.07888	8.50789
3.07705	8.50022
3.07523	8.52632
3.0734	8.59634
3.07158	8.6779
3.06977	8.7023
3.06795	8.53099
3.06613	8.48274
3.06432	8.54507
3.06251	8.58468
3.0607	8.67353
3.0589	8.74595
3.0571	8.74832
3.05529	8.71634
3.05349	8.68131
3.0517	8.75131
3.0499	8.8064
3.04811	8.72972
3.04632	8.70701
3.04453	8.74605
3.04274	8.75739
3.04096	8.65264
3.03918	8.68493
3.0374	8.68336
3.03562	8.77384
3.03384	8.95272
3.03207	9.04245
3.03029	9.01855
3.02852	8.91156
3.02676	8.93565
3.02499	9.03115
3.02323	9.04352
3.02146	9.12975
3.0197	9.08331
3.01795	8.98671
3.01619	8.9944
3.01444	9.18515
3.01269	9.24296
3.01094	9.03834
3.00919	8.93589
3.00744	9.00482
3.0057	9.05676
3.00396	9.13015
3.00222	9.25883
3.00048	9.31191
2.99875	9.38277
2.99701	9.30034
2.99528	9.25517
2.99355	9.29859
2.99183	9.38406
2.9901	9.34728
2.98838	9.2748
2.98666	9.29591
2.98494	9.27841
2.98322	9.40135
2.9815	9.42573
2.97979	9.34381
2.97808	9.38308
2.97637	9.44458
2.97466	9.50286
2.97295	9.5327
2.97125	9.53061
2.96955	9.43676
2.96785	9.39972
2.96615	9.42588
2.96446	9.54762
2.96276	9.58928
2.96107	9.5681
2.95938	9.58547
2.95769	9.6011
2.95601	9.64982
2.95432	9.6591
2.95264	9.62067
2.95096	9.59641
2.94928	9.55757
2.9476	9.52774
2.94593	9.60654
2.94425	9.67131
2.94258	9.75177
2.94092	9.76861
2.93925	9.70822
2.93758	9.6765
2.93592	9.69668
2.93426	9.7021
2.9326	9.70888
2.93094	9.77968
2.92928	9.92566
2.92763	10.002
2.92598	10.1128
2.92433	10.1412
2.92268	10.1564
2.92103	10.0662
2.91939	9.98456
2.91775	9.91915
2.9161	9.93211
2.91447	10.1343
2.91283	10.137
2.91119	10.002
2.90956	10.0127
2.90793	10.128
2.9063	10.4134
2.90467	10.4493
2.90304	10.2909
2.90142	10.218
2.89979	10.213
2.89817	10.2941
2.89656	10.3876
2.89494	10.3877
2.89332	10.3971
2.89171	10.3901
2.8901	10.4974
2.88849	10.5887
2.88688	10.6308
2.88527	10.6645
2.88367	10.6222
2.88206	10.6583
2.88046	10.814
2.87886	10.8709
2.87727	10.8622
2.87567	10.8604
2.87408	10.9193
2.87248	10.9211
2.87089	10.8876
2.8693	10.8822
2.86772	10.9849
2.86613	11.0985
2.86455	11.0624
2.86297	11.0848
2.86139	11.259
2.85981	11.2567
2.85823	11.2716
2.85666	11.3417
2.85508	11.463
2.85351	11.5306
2.85194	11.5503
2.85038	11.6708
2.84881	11.77
2.84724	11.6802
2.84568	11.5375
2.84412	11.602
2.84256	11.7987
2.841	11.8077
2.83945	11.7223
2.83789	11.8071
2.83634	11.8656
2.83479	12.0042
2.83324	12.1417
2.83169	12.3353
2.83015	12.3881
2.82861	12.3221
2.82706	12.2453
2.82552	12.2793
2.82398	12.474
2.82245	12.7123
2.82091	12.7659
2.81938	12.8223
2.81784	12.8971
2.81631	12.9347
2.81479	12.9986
2.81326	12.9871
2.81173	12.9989
2.81021	13.1324
2.80869	13.1869
2.80716	13.1378
2.80565	13.2973
2.80413	13.6551
2.80261	13.7999
2.8011	13.8201
2.79959	13.765
2.79808	13.6624
2.79657	13.711
2.79506	13.877
2.79355	14.0665
2.79205	14.1735
2.79055	14.2721
2.78904	14.3942
2.78754	14.5935
2.78605	14.7459
2.78455	14.5506
2.78306	14.6266
2.78156	14.8435
2.78007	14.9561
2.77858	15.0113
2.77709	15.0172
2.77561	15.1455
2.77412	15.1857
2.77264	15.1415
2.77116	15.3592
2.76968	15.4406
2.7682	15.7525
2.76672	15.9152
2.76524	15.8368
2.76377	16.0585
2.7623	16.0097
2.76083	15.8214
2.75936	16.0732
2.75789	16.3969
2.75642	16.7354
2.75496	16.8598
2.7535	16.484
2.75203	16.3317
2.75057	16.2052
2.74912	16.228
2.74766	16.4861
2.7462	16.5298
2.74475	16.5926
2.7433	16.7835
2.74185	17.1076
2.7404	17.3707
2.73895	17.3682
2.7375	17.2277
2.73606	17.1993
2.73462	17.2483
2.73318	17.005
2.73174	16.8508
2.7303	16.9814
2.72886	16.9981
2.72742	17.0533
2.72599	17.3879
2.72456	17.7396
2.72313	17.7201
2.7217	17.8879
2.72027	18.0745
2.71884	17.6198
2.71742	17.3834
2.71599	17.3098
2.71457	17.3081
2.71315	17.4313
2.71173	17.7518
2.71032	17.7961
2.7089	17.6114
2.70748	17.4185
2.70607	17.3935
2.70466	17.4433
2.70325	17.3086
2.70184	17.4139
2.70043	17.4727
2.69903	17.3506
2.69762	17.4267
2.69622	17.5055
2.69482	17.7327
2.69342	17.9721
2.69202	17.6377
2.69062	17.4121
2.68923	17.4899
2.68783	17.49
2.68644	17.4621
2.68505	17.5863
2.68366	17.7267
2.68227	17.6455
2.68089	17.5645
2.6795	17.7164
2.67812	17.8619
2.67673	17.9963
2.67535	17.8933
2.67397	17.6429
2.6726	17.6041
2.67122	18.1628
2.66984	18.3154
2.66847	17.889
2.6671	18.1063
2.66572	18.331
2.66435	18.1059
2.66299	17.6483
2.66162	17.5511
2.66025	17.6171
2.65889	17.6346
2.65753	17.5309
2.65616	17.6984
2.65481	17.6584
2.65345	17.5557
2.65209	17.6553
2.65073	17.5373
2.64938	17.3626
2.64803	17.3253
2.64667	17.4468
2.64532	17.503
2.64397	17.5091
2.64263	17.4911
2.64128	17.4546
2.63994	17.4611
2.63859	17.3732
2.63725	17.2128
2.63591	17.2573
2.63457	17.4764
2.63323	17.525
2.6319	17.7052
2.63056	18.1912
2.62923	17.8898
2.62789	17.6299
2.62656	17.8519
2.62523	17.5897
2.6239	17.4132
2.62258	17.4435
2.62125	17.6778
2.61993	17.8165
2.6186	17.711
2.61728	17.9937
2.61596	17.8556
2.61464	17.5987
2.61332	17.6096
2.61201	17.2639
2.61069	17.2247
2.60938	17.5588
2.60807	17.7225
2.60675	17.8238
2.60544	17.8214
2.60414	17.4185
2.60283	17.4272
2.60152	17.6314
2.60022	17.5507
2.59891	17.3548
2.59761	17.441
2.59631	17.895
2.59501	18.542
2.59371	18.2092
2.59242	17.669
2.59112	17.4385
2.58983	17.3837
2.58853	17.5329
2.58724	17.7013
2.58595	17.6598
2.58466	17.9094
2.58338	17.9278
2.58209	17.4578
2.5808	17.3682
2.57952	17.2286
2.57824	17.2645
2.57695	17.4788
2.57567	17.4705
2.5744	17.5275
2.57312	17.6007
2.57184	17.3304
2.57057	17.3808
2.56929	17.5422
2.56802	17.4328
2.56675	17.3532
2.56548	17.4373
2.56421	17.5379
2.56294	17.5542
2.56168	17.5383
2.56041	17.3981
2.55915	17.2705
2.55789	17.2011
2.55662	17.1285
2.55536	17.2538
2.5541	17.3691
2.55285	17.409
2.55159	17.458
2.55034	17.3815
2.54908	17.2908
2.54783	17.2002
2.54658	17.2449
2.54533	17.3924
2.54408	17.4295
2.54283	17.4796
2.54159	17.3788
2.54034	17.2441
2.5391	17.1618
2.53785	17.1717
2.53661	17.1984
2.53537	17.2194
2.53413	17.2843
2.53289	17.2376
2.53166	17.1837
2.53042	17.1754
2.52919	17.1941
2.52795	17.3059
2.52672	17.2816
2.52549	17.171
2.52426	17.1946
2.52303	17.1859
2.52181	17.2613
2.52058	17.228
2.51936	17.0922
2.51813	17.0963
2.51691	17.1244
2.51569	17.1046
2.51447	17.1182
2.51325	17.1626
2.51203	17.2211
2.51082	17.1765
2.5096	16.9889
2.50839	16.9634
2.50717	17.1243
2.50596	17.2115
2.50475	17.2318
2.50354	17.1112
2.50233	17.044
2.50113	17.1176
2.49992	17.1204
2.49872	17.1563
2.49751	17.1375
2.49631	17.0481
2.49511	17.0216
2.49391	16.9826
2.49271	17.0868
2.49151	17.1519
2.49031	17.1364
2.48912	17.1055
2.48792	16.9732
2.48673	17.044
2.48554	17.0339
2.48435	17.0225
2.48316	17.0112
2.48197	17.2067
2.48078	17.3188
2.4796	17.1982
2.47841	17.0831
2.47723	16.9915
2.47604	16.9696
2.47486	16.8904
2.47368	17.008
2.4725	17.1467
2.47132	17.0477
2.47014	17.1007
2.46897	17.1359
2.46779	17.0717
2.46662	17.0913
2.46545	17.1028
2.46427	17.0832
2.4631	17.1746
2.46193	17.1958
2.46077	17.0839
2.4596	17.0699
2.45843	17.066
2.45727	17.1411
2.4561	17.1753
2.45494	17.1628
2.45378	17.1215
2.45262	16.9914
2.45146	16.8006
2.4503	16.7071
2.44914	16.78
2.44799	16.9137
2.44683	16.8693
2.44568	16.7741
2.44452	16.9556
2.44337	17.0834
2.44222	17.1165
2.44107	17.0683
2.43992	16.936
2.43877	16.9195
2.43763	16.8857
2.43648	16.829
2.43534	16.9709
2.43419	17.0615
2.43305	17.1604
2.43191	17.1768
2.43077	17.077
2.42963	17.07
2.42849	16.8866
2.42736	16.8686
2.42622	16.9445
2.42509	16.873
2.42395	16.8545
2.42282	16.9271
2.42169	17.1232
2.42056	17.1881
2.41943	17.0968
2.4183	17.0565
2.41717	16.9647
2.41605	16.8926
2.41492	16.9399
2.4138	16.946
2.41267	16.8618
2.41155	16.7684
2.41043	16.8473
2.40931	16.9797
2.40819	16.8984
2.40707	16.6974
2.40595	16.6985
2.40484	16.8502
2.40372	17.0008
2.40261	16.9523
2.4015	17.0005
2.40039	17.1249
2.39928	17.0985
2.39817	16.9647
2.39706	16.9661
2.39595	16.9115
2.39484	16.9044
2.39374	16.9336
2.39263	16.9782
2.39153	16.9091
2.39043	16.8649
2.38932	16.8813
2.38822	16.906
2.38712	16.9604
2.38603	16.9944
2.38493	17.0115
2.38383	16.8862
2.38274	16.7952
2.38164	16.8554
2.38055	16.8721
2.37946	16.9764
2.37836	17.1205
2.37727	17.0414
2.37618	16.9652
2.3751	17
2.37401	16.8768
2.37292	16.8125
2.37184	16.9223
2.37075	17.0255
2.36967	16.8829
2.36859	16.6984
2.3675	16.7579
2.36642	16.77
2.36534	16.7822
2.36427	16.7494
2.36319	16.729
2.36211	16.8028
2.36104	16.8955
2.35996	16.9915
2.35889	16.8744
2.35781	16.8158
2.35674	16.9799
2.35567	16.938
2.3546	16.891
2.35353	16.9877
2.35247	17.0693
2.3514	17.0334
2.35033	16.8999
2.34927	16.8167
2.3482	16.875
2.34714	16.8146
2.34608	16.7349
2.34502	16.7565
2.34396	16.761
2.3429	16.7901
2.34184	16.9152
2.34078	16.9045
2.33973	16.8155
2.33867	16.9633
2.33762	16.9707
2.33656	16.7829
2.33551	16.8218
2.33446	16.9051
2.33341	16.8574
2.33236	16.9484
2.33131	16.9719
2.33026	16.8494
2.32922	16.8241
2.32817	16.8086
2.32712	16.7522
2.32608	16.6792
2.32504	16.5535
2.324	16.6562
2.32295	16.7997
2.32191	16.6859
2.32087	16.7354
2.31984	16.8665
2.3188	16.8572
2.31776	16.7011
2.31673	16.5511
2.31569	16.5945
2.31466	16.7252
2.31362	16.726
2.31259	16.7256
2.31156	16.7505
2.31053	16.8201
2.3095	16.765
2.30847	16.6959
2.30745	16.7187
2.30642	16.6526
2.3054	16.5626
2.30437	16.6653
2.30335	16.8488
2.30232	16.8427
2.3013	16.6924
2.30028	16.693
2.29926	16.7991
2.29824	16.8382
2.29722	16.8027
2.29621	16.6967
2.29519	16.6556
2.29417	16.8642
2.29316	16.8553
2.29215	16.7162
2.29113	16.6369
2.29012	16.5795
2.28911	16.6542
2.2881	16.7892
2.28709	16.9505
2.28608	16.8363
2.28507	16.6741
2.28407	16.5998
2.28306	16.5873
2.28206	16.7446
2.28105	16.6959
2.28005	16.551
2.27905	16.6052
2.27805	16.6935
2.27705	16.659
2.27605	16.708
2.27505	16.8633
2.27405	16.8932
2.27305	16.8526
2.27206	16.7966
2.27106	16.7527
2.27007	16.6751
2.26907	16.5322
2.26808	16.5245
2.26709	16.7535
2.2661	16.8856
2.26511	16.7735
2.26412	16.6002
2.26313	16.5621
2.26214	16.6537
2.26116	16.7541
2.26017	16.7617
2.25919	16.7464
2.2582	16.6302
2.25722	16.5545
2.25624	16.7131
2.25526	16.7364
2.25428	16.6565
2.2533	16.5737
2.25232	16.5491
2.25134	16.5133
2.25036	16.6299
2.24939	16.8696
2.24841	16.6978
2.24744	16.4853
2.24646	16.473
2.24549	16.7161
2.24452	16.819
2.24355	16.6236
2.24257	16.5179
2.24161	16.5148
2.24064	16.5224
2.23967	16.5409
2.2387	16.4644
2.23774	16.4463
2.23677	16.5037
2.23581	16.7059
2.23484	16.7239
2.23388	16.6165
2.23292	16.5461
2.23196	16.4397
2.231	16.4572
2.23004	16.5426
2.22908	16.5619
2.22812	16.6865
2.22716	16.7112
2.22621	16.527
2.22525	16.4225
2.2243	16.5059
2.22334	16.5224
2.22239	16.4482
2.22144	16.5792
2.22049	16.669
2.21953	16.5629
2.21859	16.4294
2.21764	16.3037
2.21669	16.3666
2.21574	16.4862
2.21479	16.6264
2.21385	16.6713
2.2129	16.6434
2.21196	16.6395
2.21102	16.6429
2.21007	16.6045
2.20913	16.5897
2.20819	16.5503
2.20725	16.5342
2.20631	16.7378
2.20537	16.8195
2.20444	16.5058
2.2035	16.4359
2.20256	16.5409
2.20163	16.5161
2.20069	16.381
2.19976	16.2259
2.19883	16.2617
2.19789	16.3725
2.19696	16.3482
2.19603	16.3987
2.1951	16.3599
2.19417	16.4291
2.19325	16.4926
2.19232	16.498
2.19139	16.5352
2.19047	16.4718
2.18954	16.4879
2.18862	16.5511
2.18769	16.4114
2.18677	16.2338
2.18585	16.2322
2.18493	16.4289
2.18401	16.4432
2.18309	16.2219
2.18217	16.1782
2.18125	16.3673
2.18033	16.5913
2.17942	16.4883
2.1785	16.4469
2.17759	16.5602
2.17667	16.4822
2.17576	16.332
2.17485	16.6188
2.17393	16.6692
2.17302	16.3893
2.17211	16.4531
2.1712	16.6387
2.17029	16.5759
2.16939	16.478
2.16848	16.3655
2.16757	16.4865
2.16667	16.5747
2.16576	16.4342
2.16486	16.4824
2.16395	16.3838
2.16305	16.3281
2.16215	16.4636
2.16125	16.469
2.16035	16.547
2.15945	16.3749
2.15855	16.3421
2.15765	16.4409
2.15675	16.2093
2.15586	16.1577
2.15496	16.1617
2.15406	16.1588
2.15317	16.2289
2.15228	16.3823
2.15138	16.3521
2.15049	16.1381
2.1496	16.2238
2.14871	16.3996
2.14782	16.427
2.14693	16.3926
2.14604	16.2313
2.14515	16.2776
2.14427	16.4277
2.14338	16.4134
2.14249	16.3445
2.14161	16.1375
2.14072	16.1654
2.13984	16.3311
2.13896	16.3432
2.13808	16.3697
2.13719	16.4855
2.13631	16.4456
2.13543	16.3766
2.13455	16.453
2.13368	16.4079
2.1328	16.1182
2.13192	16.1008
2.13105	16.2117
2.13017	16.264
2.1293	16.1834
2.12842	16.1737
2.12755	16.2469
2.12668	16.2229
2.1258	16.1675
2.12493	16.2428
2.12406	16.3837
2.12319	16.5143
2.12232	16.3203
2.12145	16.0334
2.12059	16.0297
2.11972	16.0503
2.11885	16.0933
2.11799	16.2872
2.11712	16.2713
2.11626	16.1416
2.1154	16.2398
2.11453	16.4359
2.11367	16.3626
2.11281	16.3417
2.11195	16.2764
2.11109	16.1634
2.11023	15.9409
2.10937	16.0253
2.10851	16.2086
2.10766	16.2644
2.1068	16.4195
2.10594	16.4671
2.10509	16.4914
2.10423	16.361
2.10338	16.1732
2.10253	16.1264
2.10168	16.2126
2.10082	16.0741
2.09997	16.1192
2.09912	16.3769
2.09827	16.4201
2.09742	16.1941
2.09658	15.956
2.09573	16.0054
2.09488	16.2786
2.09404	16.2167
2.09319	15.9387
2.09235	16.0546
2.0915	16.4426
2.09066	16.4119
2.08982	16.3047
2.08897	16.3985
2.08813	16.2828
2.08729	16.003
2.08645	16.0674
2.08561	16.1979
2.08477	16.0501
2.08394	16.0475
2.0831	16.3239
2.08226	16.4081
2.08143	16.0681
2.08059	15.8994
2.07976	15.9716
2.07892	15.7739
2.07809	16.0061
2.07726	16.0665
2.07643	15.7499
2.07559	15.9808
2.07476	16.2599
2.07393	16.2097
2.0731	16.2454
2.07228	16.4474
2.07145	16.2706
2.07062	15.9108
2.06979	15.9195
2.06897	15.9829
2.06814	15.7959
2.06732	15.6768
2.06649	15.9814
2.06567	16.2601
2.06485	16.0086
2.06403	15.9486
2.0632	16.1572
2.06238	16.2377
2.06156	16.0288
2.06074	15.8026
2.05993	15.8593
2.05911	16.0575
2.05829	16.2028
2.05747	16.0963
2.05666	16.1272
2.05584	16.1022
2.05503	15.9652
2.05421	16.0846
2.0534	16.0401
2.05259	15.9577
2.05177	15.9137
2.05096	15.8669
2.05015	16.0297
2.04934	16.0543
2.04853	15.9893
2.04772	15.8759
2.04691	15.7536
2.04611	15.719
2.0453	15.71
2.04449	15.8418
2.04369	16.0214
2.04288	16.1108
2.04208	16.1156
2.04127	16.0345
2.04047	15.9765
2.03967	15.872
2.03886	15.7139
2.03806	15.7373
2.03726	15.8103
2.03646	15.8499
2.03566	15.7811
2.03486	15.7166
2.03407	15.7945
2.03327	15.7577
2.03247	16.1602
2.03167	16.1977
2.03088	15.851
2.03008	15.9988
2.02929	15.9557
2.0285	15.7085
2.0277	15.8068
2.02691	16.0556
2.02612	16.2926
2.02533	16.1854
2.02453	15.8224
2.02374	15.5948
2.02295	15.5927
2.02217	15.7398
2.02138	16.0102
2.02059	15.9677
2.0198	15.7896
2.01902	15.5882
2.01823	15.5621
2.01744	15.7439
2.01666	15.8956
2.01588	15.9674
2.01509	15.8776
2.01431	15.8992
2.01353	15.8273
2.01275	15.8184
2.01196	16.0257
2.01118	16.0374
2.0104	16.0167
2.00963	16.0137
2.00885	15.8617
2.00807	15.8146
2.00729	15.7655
2.00651	15.7964
2.00574	15.78
2.00496	15.8111
2.00419	16.0166
2.00341	16.0003
2.00264	15.7518
2.00187	15.6531
2.00109	15.6496
2.00032	15.7584
