Name: Sphalerite (Zn,Fe)S
Type: Mineral
Class: Sulfides
Subclass: 
Particle Size: 125-500um
Sample No.: S-1A
Owner: JPL
Wavelength range: IR
Origin: USA, Oklahoma, Ottawa County, Picher
Collected by JPL
Description: 





Measurement: Hemispherical reflectance
First Column: X
Second Column: Y
X Units:  Wavelength (micrometers)
Y Units:  Reflectance (percent)
First X Value: 15.3853
Last X Value: 2.00032
Number of X Values: 2256
Additional information: s01aa.txt
 
15.3853	15.3401
15.3397	17.2423
15.2945	18.5263
15.2495	19.2893
15.2048	19.6266
15.1603	19.3657
15.1161	18.0978
15.0722	16.3778
15.0285	14.5348
14.9851	13.0513
14.9419	12.5225
14.8989	13.2641
14.8563	14.7921
14.8138	16.3166
14.7716	17.5259
14.7296	18.5546
14.6879	19.4975
14.6464	20.376
14.6052	21.1597
14.5641	21.7794
14.5233	22.472
14.4828	23.2345
14.4424	23.7408
14.4023	24.4743
14.3624	25.1497
14.3227	25.7847
14.2833	26.6378
14.244	27.3984
14.205	27.9334
14.1662	28.5178
14.1276	28.725
14.0892	28.9577
14.051	29.2857
14.0131	29.6489
13.9753	29.8196
13.9377	29.8871
13.9004	29.9662
13.8632	30.2404
13.8262	30.5826
13.7895	30.7184
13.7529	30.8132
13.7165	31.1679
13.6803	31.5467
13.6443	31.6636
13.6085	31.7317
13.5729	31.989
13.5374	32.3325
13.5022	32.4201
13.4671	32.4668
13.4322	32.671
13.3975	32.7612
13.363	32.8594
13.3286	33.1168
13.2944	33.2705
13.2604	33.369
13.2266	33.2758
13.193	33.3077
13.1595	33.5308
13.1262	33.6167
13.093	33.7368
13.06	33.7269
13.0272	33.8536
12.9946	33.9753
12.9621	34
12.9298	33.9542
12.8976	33.9262
12.8656	34.0143
12.8337	34.0951
12.8021	34.2306
12.7705	34.4253
12.7391	34.4808
12.7079	34.5323
12.6769	34.6595
12.6459	34.7583
12.6152	34.8584
12.5845	35.0376
12.5541	35.1915
12.5238	35.2907
12.4936	35.4631
12.4635	35.6833
12.4337	35.8624
12.4039	36.0628
12.3743	36.1895
12.3448	36.3178
12.3155	36.5093
12.2863	36.6422
12.2573	36.7816
12.2284	36.9413
12.1996	37.0491
12.171	37.1211
12.1425	37.3489
12.1141	37.5811
12.0859	37.7536
12.0578	37.8751
12.0298	37.9236
12.0019	38.1004
11.9742	38.1849
11.9466	38.2378
11.9192	38.298
11.8918	38.3647
11.8646	38.4321
11.8375	38.5305
11.8106	38.6075
11.7837	38.5874
11.757	38.5176
11.7304	38.4733
11.7039	38.5507
11.6776	38.6609
11.6513	38.627
11.6252	38.6154
11.5992	38.6979
11.5733	38.668
11.5475	38.5708
11.5219	38.5523
11.4963	38.5331
11.4709	38.5347
11.4455	38.5938
11.4203	38.6413
11.3952	38.5211
11.3702	38.4633
11.3454	38.4149
11.3206	38.4072
11.2959	38.4423
11.2714	38.4486
11.2469	38.4519
11.2226	38.4315
11.1983	38.311
11.1742	38.1955
11.1502	38.2553
11.1263	38.3604
11.1024	38.3298
11.0787	38.2703
11.0551	38.207
11.0316	38.2002
11.0081	38.2497
10.9848	38.3378
10.9616	38.3705
10.9385	38.2027
10.9154	38.059
10.8925	38.1401
10.8697	38.2353
10.8469	38.2288
10.8243	38.2335
10.8017	38.2685
10.7793	38.3648
10.7569	38.3637
10.7346	38.2722
10.7125	38.1939
10.6904	38.2333
10.6684	38.311
10.6465	38.2727
10.6247	38.204
10.6029	38.2088
10.5813	38.3165
10.5597	38.3275
10.5383	38.206
10.5169	38.1541
10.4956	38.1329
10.4744	38.074
10.4533	38.0226
10.4323	37.9964
10.4113	38.0605
10.3904	38.0203
10.3697	37.9024
10.349	37.8196
10.3284	37.8128
10.3078	37.7881
10.2874	37.7621
10.267	37.7214
10.2467	37.747
10.2265	37.8366
10.2064	37.809
10.1863	37.7673
10.1663	37.8007
10.1464	37.7664
10.1266	37.7633
10.1069	37.7852
10.0872	37.7091
10.0676	37.5314
10.0481	37.5542
10.0287	37.636
10.0093	37.7083
9.99005	37.7611
9.97084	37.7599
9.95169	37.8071
9.93263	37.8835
9.91364	37.876
9.89472	37.892
9.87587	37.8385
9.8571	37.8165
9.83839	37.8621
9.81976	37.8568
9.80119	37.8432
9.78271	37.9157
9.76428	37.9293
9.74592	37.9845
9.72764	37.943
9.70943	37.9603
9.69128	38.0584
9.6732	38.2439
9.65518	38.2365
9.63724	38.1301
9.61935	38.1228
9.60155	38.1786
9.5838	38.2294
9.56611	38.2865
9.5485	38.2495
9.53094	38.2562
9.51345	38.3735
9.49604	38.4493
9.47867	38.5838
9.46137	38.6767
9.44414	38.6118
9.42697	38.6514
9.40986	38.7102
9.39281	38.8087
9.37583	38.8414
9.35891	38.909
9.34204	39.0226
9.32524	39.0724
9.3085	39.1165
9.29182	39.2099
9.27519	39.1797
9.25863	39.1902
9.24213	39.261
9.22568	39.1672
9.2093	39.0552
9.19297	39.062
9.17669	39.0609
9.16048	39.1057
9.14433	39.1641
9.12823	39.2779
9.11218	39.3414
9.0962	39.3829
9.08027	39.4052
9.06439	39.5487
9.04858	39.6293
9.03281	39.6342
9.0171	39.6768
9.00145	39.7048
8.98585	39.5462
8.9703	39.4415
8.9548	39.6318
8.93937	39.7186
8.92398	39.6476
8.90865	39.7406
8.89337	39.9386
8.87814	39.9829
8.86296	39.9387
8.84784	40.0018
8.83277	40.0284
8.81774	40.1227
8.80277	40.2247
8.78786	40.2031
8.77298	40.248
8.75816	40.3407
8.7434	40.5152
8.72868	40.6083
8.714	40.639
8.69938	40.717
8.68481	40.8806
8.67029	40.8936
8.65581	40.8783
8.64139	40.9401
8.62701	41.0416
8.61268	41.055
8.5984	41.0785
8.58416	41.1123
8.56997	41.1445
8.55583	41.2883
8.54174	41.3692
8.52769	41.3511
8.51368	41.3872
8.49973	41.4489
8.48582	41.4305
8.47195	41.3925
8.45813	41.3458
8.44436	41.3682
8.43062	41.5763
8.41693	41.716
8.4033	41.6626
8.3897	41.6186
8.37614	41.5961
8.36264	41.6748
8.34917	41.8484
8.33574	42.0104
8.32236	42.0631
8.30903	42.0339
8.29573	42.1132
8.28248	42.249
8.26927	42.2197
8.2561	42.2384
8.24298	42.3242
8.2299	42.2639
8.21685	42.1491
8.20385	42.158
8.19089	42.1659
8.17797	42.2165
8.16509	42.2322
8.15225	42.135
8.13946	42.1119
8.1267	42.1089
8.11398	42.0159
8.10131	42.0336
8.08867	42.0716
8.07606	42.081
8.0635	42.143
8.05099	42.1796
8.0385	42.1008
8.02606	42.0965
8.01366	42.1671
8.00129	42.2571
7.98896	42.2365
7.97667	42.2935
7.96442	42.419
7.9522	42.4005
7.94002	42.4163
7.92788	42.5903
7.91578	42.716
7.90371	42.7957
7.89168	42.9649
7.87969	43.0375
7.86773	43.0289
7.85581	43.0698
7.84392	43.176
7.83207	43.2732
7.82026	43.304
7.80849	43.3497
7.79674	43.3729
7.78503	43.4363
7.77337	43.4934
7.76173	43.4986
7.75012	43.4698
7.73856	43.4327
7.72703	43.5101
7.71553	43.6237
7.70406	43.5702
7.69263	43.5297
7.68123	43.5638
7.66987	43.6189
7.65855	43.6095
7.64725	43.6426
7.63598	43.7217
7.62475	43.6499
7.61356	43.5551
7.60239	43.616
7.59126	43.6766
7.58017	43.6894
7.5691	43.7015
7.55806	43.7715
7.54707	43.7874
7.5361	43.7891
7.52516	43.7525
7.51425	43.7143
7.50338	43.7267
7.49253	43.7904
7.48172	43.7885
7.47094	43.7436
7.46019	43.7597
7.44947	43.7822
7.43879	43.7651
7.42813	43.7388
7.4175	43.7141
7.4069	43.6743
7.39634	43.6087
7.3858	43.5923
7.37529	43.5779
7.36482	43.5667
7.35437	43.5383
7.34396	43.4837
7.33357	43.4229
7.32321	43.3939
7.31288	43.3265
7.30258	43.3035
7.29231	43.2388
7.28207	43.1638
7.27185	43.1551
7.26167	43.1692
7.25152	43.2004
7.24139	43.2138
7.23129	43.2776
7.22122	43.4388
7.21117	43.5495
7.20116	43.4861
7.19117	43.4682
7.18121	43.569
7.17128	43.5754
7.16137	43.5161
7.1515	43.541
7.14164	43.5394
7.13182	43.4408
7.12203	43.4572
7.11225	43.4841
7.10251	43.4249
7.0928	43.2978
7.08311	43.2985
7.07344	43.3665
7.06381	43.3415
7.0542	43.3635
7.04461	43.4373
7.03506	43.2766
7.02552	43.0998
7.01601	43.1063
7.00653	43.1717
6.99708	43.1772
6.98765	43.1355
6.97824	43.0998
6.96886	43.1738
6.95951	43.2734
6.95018	43.242
6.94087	43.2222
6.9316	43.1881
6.92234	43.1846
6.91311	43.1819
6.90391	43.1508
6.89473	43.1239
6.88557	43.1662
6.87644	43.2067
6.86733	43.3543
6.85824	43.3987
6.84918	43.273
6.84015	43.2016
6.83114	43.248
6.82215	43.273
6.81319	43.2621
6.80424	43.318
6.79532	43.4522
6.78643	43.4858
6.77756	43.3988
6.76871	43.3476
6.75989	43.3321
6.75109	43.3183
6.74231	43.3199
6.73355	43.3848
6.72482	43.426
6.71611	43.458
6.70742	43.4309
6.69875	43.3319
6.69011	43.3244
6.68149	43.3348
6.67289	43.3283
6.66431	43.407
6.65576	43.4442
6.64722	43.5061
6.63871	43.6284
6.63022	43.5268
6.62175	43.3199
6.61331	43.193
6.60488	43.1999
6.59648	43.2826
6.5881	43.2933
6.57974	43.3322
6.5714	43.3393
6.56308	43.204
6.55478	43.088
6.54651	42.9954
6.53825	42.9422
6.53001	42.9156
6.5218	42.9535
6.51361	42.816
6.50544	42.7604
6.49729	42.8975
6.48915	42.9497
6.48104	42.7917
6.47295	42.6238
6.46488	42.5377
6.45683	42.5806
6.4488	42.6124
6.44079	42.5689
6.4328	42.578
6.42482	42.6476
6.41687	42.8186
6.40894	42.6248
6.40103	42.3763
6.39314	42.3434
6.38526	42.3522
6.37741	42.4372
6.36957	42.5584
6.36176	42.5117
6.35396	42.4728
6.34618	42.5967
6.33843	42.5176
6.33069	42.3663
6.32297	42.3577
6.31527	42.3949
6.30758	42.3201
6.29992	42.2093
6.29227	42.2029
6.28465	42.2896
6.27704	42.3247
6.26945	42.2753
6.26188	42.2964
6.25432	42.3223
6.24679	42.3375
6.23927	42.3362
6.23177	42.3784
6.22429	42.3873
6.21683	42.3049
6.20938	42.2837
6.20195	42.3372
6.19454	42.3296
6.18715	42.3591
6.17978	42.2825
6.17242	42.2354
6.16508	42.3511
6.15776	42.3891
6.15045	42.2564
6.14317	42.2001
6.1359	42.1521
6.12864	42.1011
6.12141	42.0993
6.11419	42.2471
6.10699	42.2814
6.0998	42.1942
6.09263	42.1781
6.08549	42.1694
6.07835	42.28
6.07123	42.3851
6.06413	42.2262
6.05705	42.2985
6.04998	42.597
6.04293	42.4503
6.0359	42.289
6.02888	42.2768
6.02187	42.2315
6.01489	42.2138
6.00792	42.2209
6.00096	42.2148
5.99403	42.2303
5.98711	42.2326
5.9802	42.2802
5.97331	42.3925
5.96644	42.4018
5.95958	42.2579
5.95274	42.189
5.94591	42.3055
5.9391	42.5343
5.9323	42.499
5.92552	42.4029
5.91876	42.3288
5.91201	42.2485
5.90528	42.2214
5.89856	42.2818
5.89186	42.2886
5.88517	42.4374
5.8785	42.5253
5.87184	42.3563
5.8652	42.2895
5.85857	42.2186
5.85196	42.126
5.84536	42.1144
5.83878	42.1588
5.83221	42.2193
5.82566	42.2883
5.81912	42.2646
5.81259	42.1061
5.80608	41.9312
5.79959	41.768
5.79311	41.6543
5.78665	41.5766
5.78019	41.5118
5.77376	41.4857
5.76734	41.4977
5.76093	41.2804
5.75453	41.0882
5.74815	41.1221
5.74179	41.094
5.73543	41.0748
5.7291	41.1618
5.72277	41.3029
5.71646	41.4204
5.71017	41.5447
5.70389	41.652
5.69762	41.8065
5.69136	41.9269
5.68513	42.0137
5.6789	42.1659
5.67268	42.2294
5.66648	42.1851
5.6603	42.2329
5.65413	42.2882
5.64797	42.2872
5.64182	42.3409
5.63569	42.256
5.62957	42.1519
5.62347	42.1962
5.61737	42.2649
5.61129	42.2169
5.60522	42.1171
5.59917	42.0126
5.59313	41.9681
5.5871	41.9786
5.58109	42.0745
5.57509	42.1033
5.5691	42.0394
5.56312	42.0389
5.55716	42.0653
5.55121	42.0527
5.54528	41.9779
5.53935	41.9784
5.53344	41.9999
5.52754	42.002
5.52166	41.9732
5.51578	41.9298
5.50992	41.8903
5.50407	41.929
5.49823	41.9443
5.49241	41.9455
5.4866	41.9887
5.4808	42.0621
5.47501	42.0431
5.46923	41.9958
5.46347	41.9678
5.45772	41.9531
5.45198	41.9649
5.44625	41.9751
5.44054	41.9258
5.43484	41.8682
5.42914	41.8617
5.42347	41.8941
5.4178	41.9045
5.41214	41.8994
5.4065	41.8582
5.40087	41.7774
5.39525	41.7198
5.38964	41.7139
5.38404	41.7035
5.37846	41.6742
5.37288	41.6684
5.36732	41.6664
5.36177	41.6812
5.35623	41.6767
5.35071	41.6722
5.34519	41.6761
5.33968	41.651
5.33419	41.5608
5.32871	41.4848
5.32324	41.5124
5.31778	41.5156
5.31233	41.4753
5.30689	41.4273
5.30147	41.3948
5.29605	41.4284
5.29065	41.4347
5.28525	41.3336
5.27987	41.2996
5.2745	41.2757
5.26914	41.2408
5.26379	41.2453
5.25845	41.2138
5.25312	41.2383
5.24781	41.2162
5.2425	41.1873
5.23721	41.2037
5.23192	41.1326
5.22665	41.0314
5.22138	41.0303
5.21613	41.1158
5.21089	41.125
5.20566	41.0791
5.20044	41.0306
5.19522	41.007
5.19002	40.965
5.18483	40.9328
5.17965	40.8414
5.17448	40.7285
5.16933	40.7235
5.16418	40.7501
5.15904	40.7715
5.15391	40.7089
5.14879	40.6505
5.14368	40.6462
5.13859	40.5997
5.1335	40.5278
5.12842	40.4369
5.12335	40.4033
5.1183	40.3924
5.11325	40.3862
5.10821	40.3857
5.10318	40.3132
5.09817	40.2574
5.09316	40.2121
5.08816	40.1697
5.08317	40.1357
5.07819	40.0788
5.07322	40.0578
5.06826	40.0281
5.06331	39.9747
5.05837	39.8885
5.05344	39.8419
5.04852	39.8131
5.04361	39.777
5.03871	39.692
5.03382	39.6007
5.02894	39.5625
5.02406	39.5034
5.0192	39.5089
5.01435	39.4728
5.0095	39.3503
5.00467	39.2811
4.99984	39.2734
4.99502	39.2363
4.99021	39.1801
4.98542	39.0579
4.98063	38.993
4.97585	39.0574
4.97108	39.0141
4.96632	38.8335
4.96156	38.7387
4.95682	38.7206
4.95209	38.6428
4.94736	38.5996
4.94264	38.5307
4.93794	38.4814
4.93324	38.3991
4.92855	38.3064
4.92387	38.313
4.9192	38.2026
4.91453	38.0366
4.90988	37.9971
4.90524	38.0271
4.9006	38.0242
4.89597	37.8518
4.89135	37.7199
4.88674	37.6934
4.88214	37.6126
4.87755	37.5413
4.87296	37.5116
4.86839	37.4238
4.86382	37.2717
4.85926	37.1204
4.85471	37.0557
4.85017	37.0729
4.84564	36.9946
4.84111	36.8343
4.8366	36.7874
4.83209	36.6165
4.82759	36.5368
4.8231	36.5321
4.81862	36.4506
4.81415	36.3232
4.80968	36.2618
4.80522	36.1186
4.80077	36.0327
4.79633	35.959
4.7919	35.8284
4.78747	35.7644
4.78306	35.6592
4.77865	35.5019
4.77425	35.3879
4.76986	35.3059
4.76547	35.2447
4.7611	35.1396
4.75673	35.0286
4.75237	34.9565
4.74802	34.8249
4.74367	34.6993
4.73934	34.5982
4.73501	34.4404
4.73069	34.2614
4.72638	34.123
4.72207	34.0599
4.71777	34.0113
4.71348	33.928
4.7092	33.8391
4.70493	33.6941
4.70066	33.5738
4.69641	33.4823
4.69216	33.3378
4.68791	33.1244
4.68368	32.9802
4.67945	32.8901
4.67523	32.8148
4.67102	32.7705
4.66682	32.6018
4.66262	32.4169
4.65843	32.3264
4.65425	32.2411
4.65007	32.106
4.64591	31.8675
4.64175	31.7273
4.6376	31.7202
4.63345	31.6202
4.62932	31.4385
4.62519	31.286
4.62106	31.1882
4.61695	31.1411
4.61284	31.0164
4.60874	30.8209
4.60465	30.6116
4.60056	30.52
4.59648	30.3867
4.59241	30.2143
4.58835	30.1132
4.58429	30.0429
4.58024	29.9405
4.5762	29.7661
4.57216	29.547
4.56814	29.4117
4.56411	29.3378
4.5601	29.1608
4.55609	29.0064
4.55209	28.8756
4.5481	28.6957
4.54411	28.5882
4.54013	28.4703
4.53616	28.2883
4.5322	28.1245
4.52824	28.0024
4.52429	27.8437
4.52034	27.6726
4.51641	27.5502
4.51247	27.4814
4.50855	27.3262
4.50463	27.1803
4.50072	26.9741
4.49682	26.7899
4.49292	26.7519
4.48903	26.6786
4.48515	26.4397
4.48127	26.3052
4.4774	26.218
4.47354	26.0328
4.46968	25.9023
4.46584	25.7913
4.46199	25.5827
4.45815	25.4676
4.45432	25.3665
4.4505	25.2531
4.44668	25.1832
4.44287	24.9773
4.43907	24.7021
4.43527	24.5439
4.43148	24.4632
4.4277	24.2751
4.42392	24.12
4.42015	24.0388
4.41638	23.8606
4.41262	23.6801
4.40887	23.5896
4.40513	23.5159
4.40139	23.4034
4.39765	23.1926
4.39393	22.9899
4.39021	22.9297
4.38649	22.7775
4.38278	22.5716
4.37908	22.4723
4.37539	22.3714
4.3717	22.1924
4.36801	22.1197
4.36434	21.9859
4.36067	21.7654
4.357	21.6297
4.35335	21.5824
4.34969	21.5
4.34605	21.3466
4.34241	21.1575
4.33877	20.9546
4.33514	20.8583
4.33152	20.8201
4.32791	20.7019
4.3243	20.5378
4.32069	20.3062
4.3171	20.1553
4.31351	20.0753
4.30992	19.955
4.30634	19.7456
4.30277	19.5817
4.2992	19.5758
4.29564	19.539
4.29208	19.4667
4.28853	19.3153
4.28499	19.1734
4.28145	19.0995
4.27792	18.9304
4.27439	18.7515
4.27087	18.5652
4.26735	18.4051
4.26384	18.2887
4.26034	18.254
4.25684	18.1331
4.25335	18.0385
4.24986	17.9447
4.24638	17.7619
4.24291	17.6872
4.23944	17.5539
4.23598	17.415
4.23252	17.2965
4.22906	17.1783
4.22562	17.0817
4.22218	17.038
4.21874	16.8774
4.21531	16.6975
4.21189	16.694
4.20847	16.6631
4.20506	16.4708
4.20165	16.2136
4.19825	16.1223
4.19485	16.0524
4.19146	15.9535
4.18807	15.8468
4.18469	15.7879
4.18132	15.6726
4.17795	15.4949
4.17458	15.4211
4.17123	15.4252
4.16787	15.3179
4.16453	15.1218
4.16118	15.0094
4.15785	14.9742
4.15451	14.8895
4.15119	14.7934
4.14787	14.7098
4.14455	14.5832
4.14124	14.4775
4.13794	14.3679
4.13464	14.2754
4.13134	14.2511
4.12805	14.2096
4.12477	14.1225
4.12149	14.0496
4.11822	13.9376
4.11495	13.8422
4.11168	13.72
4.10843	13.5648
4.10517	13.5096
4.10192	13.4692
4.09868	13.379
4.09545	13.3807
4.09221	13.2876
4.08899	13.1201
4.08576	13.0265
4.08255	13.0099
4.07933	13.0179
4.07613	12.8723
4.07292	12.7398
4.06973	12.6919
4.06654	12.5718
4.06335	12.4489
4.06017	12.4192
4.05699	12.3165
4.05382	12.1774
4.05065	12.11
4.04749	12.0234
4.04433	12.0749
4.04118	12.0625
4.03803	11.9749
4.03489	11.9617
4.03175	11.8938
4.02862	11.8387
4.02549	11.7451
4.02237	11.6304
4.01925	11.4645
4.01614	11.2992
4.01303	11.3529
4.00993	11.3778
4.00683	11.2822
4.00373	11.2094
4.00064	11.24
3.99756	11.2245
3.99448	11.1794
3.9914	11.1461
3.98833	11.0802
3.98527	10.9598
3.98221	10.7915
3.97915	10.7952
3.9761	10.8172
3.97305	10.7505
3.97001	10.7363
3.96697	10.7342
3.96394	10.644
3.96091	10.5503
3.95789	10.5106
3.95487	10.4915
3.95186	10.4202
3.94885	10.3102
3.94584	10.3034
3.94284	10.3588
3.93984	10.1727
3.93685	9.98154
3.93386	10.0047
3.93088	10.0808
3.9279	10.0554
3.92493	10.01
3.92196	10.0575
3.919	10.0259
3.91604	9.97246
3.91308	9.87994
3.91013	9.78299
3.90718	9.73657
3.90424	9.7037
3.9013	9.68123
3.89837	9.61235
3.89544	9.56816
3.89252	9.41859
3.8896	9.38948
3.88668	9.49134
3.88377	9.48745
3.88086	9.41432
3.87796	9.39055
3.87506	9.41479
3.87217	9.39984
3.86928	9.34593
3.86639	9.23183
3.86351	9.06871
3.86064	9.05298
3.85776	9.14279
3.8549	9.1886
3.85203	9.07468
3.84917	8.98207
3.84631	8.99515
3.84346	8.99194
3.84062	8.9178
3.83777	8.92733
3.83494	8.91099
3.8321	8.88645
3.82927	8.82612
3.82644	8.75103
3.82362	8.74592
3.82081	8.76419
3.81799	8.75966
3.81518	8.71101
3.81238	8.65669
3.80958	8.59875
3.80678	8.57809
3.80399	8.55339
3.8012	8.5542
3.79841	8.55914
3.79563	8.58142
3.79286	8.58696
3.79008	8.56197
3.78731	8.46841
3.78455	8.37146
3.78179	8.29608
3.77903	8.30999
3.77628	8.38641
3.77353	8.32944
3.77079	8.27621
3.76805	8.26272
3.76531	8.28384
3.76258	8.22091
3.75985	8.21421
3.75713	8.2742
3.7544	8.26797
3.75169	8.2663
3.74898	8.27568
3.74627	8.23904
3.74356	8.14028
3.74086	8.06681
3.73816	7.99756
3.73547	8.01139
3.73278	8.06829
3.7301	8.05556
3.72741	8.01775
3.72474	8.0344
3.72206	7.92048
3.71939	7.83534
3.71673	7.85251
3.71406	7.9098
3.71141	7.9413
3.70875	7.84274
3.7061	7.87047
3.70345	7.96121
3.70081	7.92655
3.69817	7.82856
3.69553	7.74604
3.6929	7.78274
3.69027	7.80823
3.68765	7.79784
3.68503	7.76876
3.68241	7.71269
3.6798	7.71857
3.67719	7.74062
3.67458	7.71897
3.67198	7.70215
3.66938	7.71516
3.66678	7.6433
3.66419	7.62359
3.66161	7.71832
3.65902	7.69824
3.65644	7.63343
3.65387	7.66298
3.65129	7.65315
3.64872	7.55202
3.64616	7.55666
3.64359	7.64442
3.64103	7.65981
3.63848	7.62013
3.63593	7.56351
3.63338	7.48906
3.63084	7.4692
3.6283	7.49844
3.62576	7.58246
3.62322	7.54417
3.62069	7.48066
3.61817	7.49453
3.61564	7.55651
3.61312	7.58307
3.61061	7.57041
3.6081	7.53792
3.60559	7.49026
3.60308	7.3841
3.60058	7.37966
3.59808	7.41597
3.59558	7.50548
3.59309	7.52653
3.59061	7.55087
3.58812	7.55406
3.58564	7.49837
3.58316	7.44327
3.58069	7.38287
3.57822	7.39168
3.57575	7.40703
3.57328	7.42067
3.57082	7.40309
3.56836	7.32785
3.56591	7.3596
3.56346	7.47846
3.56101	7.40791
3.55857	7.24148
3.55613	7.2967
3.55369	7.38092
3.55126	7.36278
3.54883	7.40899
3.5464	7.44855
3.54397	7.40795
3.54155	7.39272
3.53914	7.38188
3.53672	7.27619
3.53431	7.31309
3.5319	7.37293
3.5295	7.35913
3.5271	7.31215
3.5247	7.33586
3.52231	7.33073
3.51991	7.36697
3.51753	7.35096
3.51514	7.18767
3.51276	7.13729
3.51038	7.25227
3.50801	7.39225
3.50563	7.36196
3.50327	7.29784
3.5009	7.28926
3.49854	7.33035
3.49618	7.23329
3.49382	7.20494
3.49147	7.36284
3.48912	7.38517
3.48677	7.28425
3.48443	7.30987
3.48209	7.36403
3.47975	7.32333
3.47742	7.25453
3.47509	7.23841
3.47276	7.18886
3.47044	7.17477
3.46812	7.24633
3.4658	7.25632
3.46348	7.2432
3.46117	7.35591
3.45886	7.40195
3.45656	7.35308
3.45425	7.1883
3.45195	7.18851
3.44966	7.24216
3.44736	7.23415
3.44507	7.28337
3.44279	7.3108
3.4405	7.32292
3.43822	7.27211
3.43594	7.24715
3.43367	7.19998
3.43139	7.27314
3.42912	7.42366
3.42686	7.35845
3.42459	7.23776
3.42233	7.26361
3.42007	7.25176
3.41782	7.22636
3.41557	7.2614
3.41332	7.28183
3.41108	7.28935
3.40883	7.32773
3.40659	7.39327
3.40435	7.3906
3.40212	7.34243
3.39989	7.3491
3.39766	7.34429
3.39544	7.28873
3.39322	7.29733
3.391	7.26127
3.38878	7.1785
3.38657	7.20155
3.38436	7.28767
3.38215	7.3235
3.37994	7.31311
3.37774	7.33211
3.37554	7.32837
3.37335	7.28655
3.37115	7.26773
3.36896	7.26113
3.36678	7.20603
3.36459	7.18064
3.36241	7.34115
3.36023	7.3844
3.35805	7.34842
3.35588	7.24146
3.35371	7.18626
3.35154	7.25585
3.34938	7.1977
3.34721	7.12753
3.34505	7.16935
3.3429	7.25788
3.34074	7.26646
3.33859	7.16663
3.33644	7.08879
3.3343	7.13629
3.33215	7.21121
3.33001	7.1527
3.32788	7.12143
3.32574	7.17227
3.32361	7.27263
3.32148	7.34283
3.31936	7.27223
3.31723	7.17983
3.31511	7.24342
3.31299	7.2502
3.31088	7.2667
3.30876	7.32571
3.30665	7.30637
3.30455	7.25172
3.30244	7.25263
3.30034	7.20869
3.29824	7.19701
3.29614	7.25133
3.29405	7.1493
3.29196	7.16593
3.28987	7.28373
3.28778	7.23832
3.2857	7.20973
3.28362	7.26864
3.28154	7.24034
3.27946	7.18513
3.27739	7.27592
3.27532	7.27036
3.27325	7.24114
3.27119	7.20073
3.26913	7.26496
3.26707	7.26896
3.26501	7.28268
3.26295	7.22808
3.2609	7.18925
3.25885	7.22685
3.2568	7.28739
3.25476	7.30624
3.25272	7.28717
3.25068	7.24936
3.24864	7.31035
3.24661	7.35623
3.24458	7.29984
3.24255	7.24324
3.24052	7.27561
3.2385	7.31531
3.23648	7.24616
3.23446	7.10272
3.23244	7.1034
3.23043	7.24112
3.22841	7.27014
3.2264	7.21673
3.2244	7.19349
3.22239	7.29333
3.22039	7.31026
3.21839	7.21334
3.2164	7.13178
3.2144	7.16519
3.21241	7.25364
3.21042	7.18432
3.20844	7.1895
3.20645	7.2727
3.20447	7.3098
3.20249	7.23309
3.20051	7.09864
3.19854	7.18602
3.19657	7.25975
3.1946	7.2501
3.19263	7.28096
3.19067	7.30231
3.1887	7.22965
3.18674	7.19603
3.18479	7.29798
3.18283	7.34961
3.18088	7.336
3.17893	7.28533
3.17698	7.23976
3.17504	7.16376
3.17309	7.20086
3.17115	7.26546
3.16921	7.28057
3.16728	7.32892
3.16534	7.32665
3.16341	7.26874
3.16148	7.24921
3.15956	7.27221
3.15763	7.2004
3.15571	7.20224
3.15379	7.33906
3.15187	7.37701
3.14996	7.36745
3.14805	7.24113
3.14614	7.15342
3.14423	7.17087
3.14232	7.28589
3.14042	7.21033
3.13852	7.20002
3.13662	7.24064
3.13472	7.26514
3.13283	7.32524
3.13094	7.30025
3.12905	7.23157
3.12716	7.21447
3.12528	7.13274
3.12339	7.25789
3.12151	7.3668
3.11964	7.35076
3.11776	7.32002
3.11589	7.17969
3.11401	7.13697
3.11214	7.1192
3.11028	7.19179
3.10841	7.30201
3.10655	7.28288
3.10469	7.20796
3.10283	7.17615
3.10098	7.2004
3.09912	7.20512
3.09727	7.25525
3.09542	7.3253
3.09358	7.2747
3.09173	7.16717
3.08989	7.17554
3.08805	7.13766
3.08621	7.16996
3.08437	7.27729
3.08254	7.29303
3.08071	7.21747
3.07888	7.2634
3.07705	7.31523
3.07523	7.13175
3.0734	7.0807
3.07158	7.11062
3.06977	7.17536
3.06795	7.20068
3.06613	7.11144
3.06432	7.22186
3.06251	7.21487
3.0607	7.1784
3.0589	7.26649
3.0571	7.30941
3.05529	7.22303
3.05349	7.13144
3.0517	7.16758
3.0499	7.32877
3.04811	7.37483
3.04632	7.18121
3.04453	7.13899
3.04274	7.20043
3.04096	7.17679
3.03918	7.24766
3.0374	7.22369
3.03562	7.16336
3.03384	7.13704
3.03207	7.20038
3.03029	7.219
3.02852	7.10277
3.02676	7.05344
3.02499	7.12634
3.02323	7.17314
3.02146	7.09505
3.0197	7.10675
3.01795	7.1305
3.01619	7.19252
3.01444	7.20277
3.01269	7.18385
3.01094	7.17159
3.00919	7.19015
3.00744	7.19257
3.0057	7.17126
3.00396	7.1558
3.00222	7.15253
3.00048	7.1373
2.99875	7.15711
2.99701	7.19842
2.99528	7.14742
2.99355	7.17384
2.99183	7.2269
2.9901	7.1913
2.98838	7.18363
2.98666	7.20998
2.98494	7.12001
2.98322	7.15073
2.9815	7.19888
2.97979	7.1312
2.97808	6.92106
2.97637	6.87945
2.97466	7.01943
2.97295	7.19931
2.97125	7.24996
2.96955	7.22666
2.96785	7.28676
2.96615	7.23119
2.96446	7.15054
2.96276	7.07095
2.96107	7.00502
2.95938	7.00784
2.95769	7.02934
2.95601	7.10159
2.95432	7.09793
2.95264	7.06951
2.95096	6.98927
2.94928	7.14426
2.9476	7.30868
2.94593	7.20117
2.94425	7.00418
2.94258	6.95398
2.94092	6.94926
2.93925	7.08662
2.93758	7.07889
2.93592	6.95812
2.93426	7.08844
2.9326	7.21215
2.93094	7.14476
2.92928	7.07106
2.92763	7.16218
2.92598	7.10301
2.92433	7.08238
2.92268	7.16402
2.92103	7.17085
2.91939	7.17654
2.91775	7.16743
2.9161	7.1878
2.91447	7.14475
2.91283	7.18111
2.91119	7.2333
2.90956	7.20328
2.90793	7.08997
2.9063	7.13084
2.90467	7.11162
2.90304	7.11708
2.90142	7.17202
2.89979	7.1517
2.89817	7.08187
2.89656	6.96796
2.89494	7.02081
2.89332	7.11843
2.89171	7.04708
2.8901	7.19335
2.88849	7.33578
2.88688	7.28125
2.88527	7.02718
2.88367	7.04215
2.88206	7.16166
2.88046	7.00155
2.87886	6.93663
2.87727	7.10358
2.87567	7.14698
2.87408	7.04409
2.87248	6.93499
2.87089	6.9487
2.8693	6.99171
2.86772	7.07368
2.86613	7.15199
2.86455	7.20477
2.86297	7.2041
2.86139	7.02397
2.85981	6.93019
2.85823	6.95787
2.85666	6.91934
2.85508	6.91162
2.85351	7.10265
2.85194	7.15576
2.85038	7.09698
2.84881	7.00448
2.84724	6.94854
2.84568	7.02733
2.84412	7.03044
2.84256	6.93822
2.841	6.84371
2.83945	6.83747
2.83789	6.90966
2.83634	6.95974
2.83479	7.01217
2.83324	6.92864
2.83169	6.98466
2.83015	7.03931
2.82861	7.08192
2.82706	7.07962
2.82552	7.13736
2.82398	7.00891
2.82245	6.87119
2.82091	6.96641
2.81938	7.16022
2.81784	7.08199
2.81631	6.93642
2.81479	6.98617
2.81326	7.07891
2.81173	7.10036
2.81021	7.1415
2.80869	7.23464
2.80716	7.13193
2.80565	6.90853
2.80413	6.84355
2.80261	6.97263
2.8011	7.07584
2.79959	7.07252
2.79808	7.01276
2.79657	7.14563
2.79506	7.14956
2.79355	7.12327
2.79205	7.17029
2.79055	7.09236
2.78904	7.02
2.78754	7.0459
2.78605	7.07142
2.78455	7.16891
2.78306	7.17417
2.78156	7.1115
2.78007	6.98541
2.77858	6.92574
2.77709	6.99164
2.77561	6.90864
2.77412	6.90023
2.77264	7.06426
2.77116	7.26595
2.76968	7.08942
2.7682	6.79113
2.76672	6.98071
2.76524	7.15833
2.76377	7.11046
2.7623	7.13838
2.76083	7.0386
2.75936	7.00742
2.75789	7.01984
2.75642	6.83356
2.75496	6.99113
2.7535	7.0834
2.75203	6.99067
2.75057	6.99928
2.74912	6.98628
2.74766	7.01069
2.7462	7.0735
2.74475	7.05675
2.7433	7.02988
2.74185	7.10929
2.7404	7.30127
2.73895	7.29445
2.7375	7.15512
2.73606	7.14009
2.73462	7.09939
2.73318	6.9323
2.73174	6.98142
2.7303	6.96963
2.72886	6.86625
2.72742	6.92221
2.72599	7.11349
2.72456	7.15604
2.72313	7.02758
2.7217	7.08156
2.72027	7.09831
2.71884	6.91092
2.71742	6.90736
2.71599	6.96619
2.71457	6.97966
2.71315	7.07987
2.71173	7.18803
2.71032	6.97434
2.7089	6.84928
2.70748	6.93448
2.70607	7.04816
2.70466	7.03481
2.70325	6.93869
2.70184	6.9376
2.70043	7.09604
2.69903	7.1194
2.69762	7.07812
2.69622	7.18924
2.69482	7.10467
2.69342	7.15889
2.69202	7.24922
2.69062	7.17877
2.68923	7.05662
2.68783	7.02276
2.68644	6.9846
2.68505	6.98582
2.68366	7.06144
2.68227	7.11134
2.68089	7.04112
2.6795	6.98594
2.67812	7.05386
2.67673	7.21479
2.67535	7.17925
2.67397	7.08323
2.6726	7.16178
2.67122	7.16236
2.66984	7.13434
2.66847	7.02992
2.6671	7.0445
2.66572	7.09727
2.66435	7.03139
2.66299	7.0324
2.66162	7.13751
2.66025	7.11216
2.65889	7.1469
2.65753	7.14758
2.65616	7.14321
2.65481	7.02354
2.65345	7.06934
2.65209	7.16265
2.65073	7.02873
2.64938	6.95044
2.64803	7.03135
2.64667	7.08992
2.64532	7.07431
2.64397	7.05185
2.64263	7.10318
2.64128	7.10869
2.63994	7.0633
2.63859	7.03124
2.63725	7.04975
2.63591	7.08618
2.63457	7.27829
2.63323	7.17218
2.6319	7.03458
2.63056	7.18452
2.62923	7.20869
2.62789	7.11354
2.62656	7.17903
2.62523	7.23374
2.6239	7.19053
2.62258	7.13754
2.62125	7.182
2.61993	7.12591
2.6186	7.14314
2.61728	7.12651
2.61596	7.08295
2.61464	7.13091
2.61332	7.18555
2.61201	7.13056
2.61069	7.34022
2.60938	7.47026
2.60807	7.35787
2.60675	7.19771
2.60544	7.17173
2.60414	7.17202
2.60283	7.1318
2.60152	6.96475
2.60022	6.97359
2.59891	7.13495
2.59761	7.23352
2.59631	7.35852
2.59501	7.25879
2.59371	7.08876
2.59242	7.05665
2.59112	7.05919
2.58983	7.09511
2.58853	7.1197
2.58724	7.09477
2.58595	7.12622
2.58466	7.24842
2.58338	7.22849
2.58209	7.22594
2.5808	7.15996
2.57952	7.14977
2.57824	7.21755
2.57695	7.26928
2.57567	7.15447
2.5744	7.12845
2.57312	7.13632
2.57184	7.16501
2.57057	7.18727
2.56929	7.05792
2.56802	6.95202
2.56675	7.03512
2.56548	7.05113
2.56421	7.07993
2.56294	7.10024
2.56168	7.04667
2.56041	6.95043
2.55915	6.99806
2.55789	7.09681
2.55662	7.02966
2.55536	6.99853
2.5541	7.17206
2.55285	7.24071
2.55159	7.27274
2.55034	7.20216
2.54908	7.07889
2.54783	6.97282
2.54658	7.13683
2.54533	7.30173
2.54408	7.19494
2.54283	7.03076
2.54159	7.0506
2.54034	7.09472
2.5391	7.22082
2.53785	7.16868
2.53661	7.2029
2.53537	7.24956
2.53413	7.19421
2.53289	7.1526
2.53166	7.2212
2.53042	7.18084
2.52919	7.1944
2.52795	7.29083
2.52672	7.36528
2.52549	7.34052
2.52426	7.29467
2.52303	7.23718
2.52181	7.1556
2.52058	7.09596
2.51936	7.13455
2.51813	7.12291
2.51691	7.16915
2.51569	7.13832
2.51447	7.14995
2.51325	7.27682
2.51203	7.35148
2.51082	7.28914
2.5096	7.21545
2.50839	7.263
2.50717	7.24237
2.50596	7.18802
2.50475	7.08986
2.50354	7.05344
2.50233	7.13342
2.50113	7.1601
2.49992	7.1579
2.49872	7.22026
2.49751	7.27938
2.49631	7.28384
2.49511	7.14752
2.49391	7.19312
2.49271	7.25326
2.49151	7.22634
2.49031	7.24857
2.48912	7.34539
2.48792	7.37297
2.48673	7.25396
2.48554	7.18194
2.48435	7.30241
2.48316	7.37236
2.48197	7.36041
2.48078	7.17866
2.4796	7.23683
2.47841	7.38136
2.47723	7.31742
2.47604	7.27252
2.47486	7.27018
2.47368	7.35572
2.4725	7.38364
2.47132	7.32485
2.47014	7.26329
2.46897	7.27457
2.46779	7.48541
2.46662	7.57816
2.46545	7.38432
2.46427	7.2402
2.4631	7.31218
2.46193	7.40925
2.46077	7.37859
2.4596	7.35583
2.45843	7.42293
2.45727	7.41152
2.4561	7.26744
2.45494	7.30058
2.45378	7.37542
2.45262	7.33981
2.45146	7.44638
2.4503	7.42484
2.44914	7.35646
2.44799	7.22158
2.44683	7.19971
2.44568	7.3602
2.44452	7.41301
2.44337	7.46301
2.44222	7.49243
2.44107	7.54751
2.43992	7.52197
2.43877	7.48355
2.43763	7.42675
2.43648	7.52421
2.43534	7.49184
2.43419	7.55985
2.43305	7.48687
2.43191	7.17542
2.43077	7.12871
2.42963	7.35519
2.42849	7.3515
2.42736	7.31059
2.42622	7.40368
2.42509	7.50158
2.42395	7.45529
2.42282	7.45157
2.42169	7.50601
2.42056	7.41789
2.41943	7.36719
2.4183	7.34958
2.41717	7.31053
2.41605	7.38147
2.41492	7.53981
2.4138	7.63955
2.41267	7.63943
2.41155	7.71633
2.41043	7.7277
2.40931	7.67848
2.40819	7.74839
2.40707	7.77969
2.40595	7.68681
2.40484	7.61096
2.40372	7.53698
2.40261	7.5724
2.4015	7.54241
2.40039	7.51204
2.39928	7.67165
2.39817	7.69827
2.39706	7.56114
2.39595	7.58181
2.39484	7.7144
2.39374	7.59612
2.39263	7.50419
2.39153	7.66958
2.39043	7.72061
2.38932	7.57428
2.38822	7.5717
2.38712	7.73193
2.38603	7.75315
2.38493	7.76016
2.38383	7.75981
2.38274	7.67297
2.38164	7.78406
2.38055	7.80915
2.37946	7.6496
2.37836	7.63892
2.37727	7.64574
2.37618	7.72707
2.3751	7.83268
2.37401	7.97055
2.37292	7.82337
2.37184	7.68106
2.37075	7.74491
2.36967	7.70828
2.36859	7.68393
2.3675	7.64095
2.36642	7.77338
2.36534	7.95377
2.36427	7.91729
2.36319	7.83133
2.36211	7.74405
2.36104	7.71585
2.35996	7.82186
2.35889	8.00811
2.35781	8.03852
2.35674	8.03106
2.35567	7.93018
2.3546	7.767
2.35353	7.81396
2.35247	7.91591
2.3514	7.91259
2.35033	8.01815
2.34927	8.07224
2.3482	8.02336
2.34714	7.89117
2.34608	7.82859
2.34502	7.83262
2.34396	7.86324
2.3429	7.95781
2.34184	8.11399
2.34078	8.13422
2.33973	8.07462
2.33867	7.93236
2.33762	8.0358
2.33656	8.26376
2.33551	8.0921
2.33446	8.05732
2.33341	8.27383
2.33236	8.24391
2.33131	8.08649
2.33026	8.143
2.32922	8.16942
2.32817	8.12955
2.32712	8.18377
2.32608	8.19556
2.32504	8.09303
2.324	8.00196
2.32295	7.90989
2.32191	7.96598
2.32087	8.23657
2.31984	8.47172
2.3188	8.36143
2.31776	8.29245
2.31673	8.44198
2.31569	8.46157
2.31466	8.51567
2.31362	8.44496
2.31259	8.20579
2.31156	8.26556
2.31053	8.4052
2.3095	8.39014
2.30847	8.36527
2.30745	8.35017
2.30642	8.38777
2.3054	8.44908
2.30437	8.48818
2.30335	8.43169
2.30232	8.39799
2.3013	8.49212
2.30028	8.67383
2.29926	8.71858
2.29824	8.75624
2.29722	8.75112
2.29621	8.5969
2.29519	8.47478
2.29417	8.48308
2.29316	8.57848
2.29215	8.67284
2.29113	8.60841
2.29012	8.62382
2.28911	8.60222
2.2881	8.68973
2.28709	8.73362
2.28608	8.66903
2.28507	8.71007
2.28407	8.73281
2.28306	8.68963
2.28206	8.66694
2.28105	8.603
2.28005	8.53629
2.27905	8.61293
2.27805	8.73965
2.27705	8.88497
2.27605	8.951
2.27505	9.01073
2.27405	9.02206
2.27305	8.9785
2.27206	8.9066
2.27106	9.01826
2.27007	9.14206
2.26907	9.18689
2.26808	9.23196
2.26709	9.18621
2.2661	9.19176
2.26511	9.13553
2.26412	9.10326
2.26313	9.34771
2.26214	9.28238
2.26116	9.06571
2.26017	9.13238
2.25919	9.24475
2.2582	9.173
2.25722	9.25503
2.25624	9.34687
2.25526	9.25656
2.25428	9.22095
2.2533	9.27839
2.25232	9.34903
2.25134	9.51702
2.25036	9.53431
2.24939	9.39345
2.24841	9.28861
2.24744	9.35035
2.24646	9.33394
2.24549	9.43627
2.24452	9.66363
2.24355	9.73409
2.24257	9.76025
2.24161	9.73692
2.24064	9.78589
2.23967	9.64323
2.2387	9.46714
2.23774	9.59995
2.23677	9.70038
2.23581	9.81025
2.23484	9.9531
2.23388	9.92329
2.23292	9.77361
2.23196	9.78422
2.231	9.8877
2.23004	9.99878
2.22908	10.0943
2.22812	10.0217
2.22716	9.97672
2.22621	10.1019
2.22525	10.0815
2.2243	9.95142
2.22334	9.87921
2.22239	10.0064
2.22144	10.1745
2.22049	10.2307
2.21953	10.1398
2.21859	10.156
2.21764	10.3547
2.21669	10.497
2.21574	10.4444
2.21479	10.3556
2.21385	10.378
2.2129	10.4603
2.21196	10.5526
2.21102	10.5714
2.21007	10.4377
2.20913	10.3639
2.20819	10.4617
2.20725	10.6052
2.20631	10.6397
2.20537	10.5981
2.20444	10.5778
2.2035	10.6296
2.20256	10.8376
2.20163	10.8161
2.20069	10.6399
2.19976	10.6631
2.19883	10.7941
2.19789	10.9565
2.19696	10.9316
2.19603	10.8365
2.1951	10.8459
2.19417	10.9972
2.19325	10.9691
2.19232	10.9886
2.19139	11.2122
2.19047	11.4096
2.18954	11.5499
2.18862	11.3343
2.18769	11.2475
2.18677	11.3165
2.18585	11.3621
2.18493	11.3646
2.18401	11.4641
2.18309	11.6145
2.18217	11.5445
2.18125	11.6348
2.18033	11.7244
2.17942	11.7234
2.1785	11.7956
2.17759	11.9272
2.17667	11.9201
2.17576	11.8313
2.17485	11.8019
2.17393	11.7987
2.17302	11.8222
2.17211	11.9632
2.1712	12.0972
2.17029	11.9838
2.16939	12.056
2.16848	12.2008
2.16757	12.2875
2.16667	12.372
2.16576	12.268
2.16486	12.311
2.16395	12.4901
2.16305	12.6044
2.16215	12.7532
2.16125	12.6245
2.16035	12.6161
2.15945	12.7463
2.15855	12.6981
2.15765	12.6493
2.15675	12.5275
2.15586	12.5348
2.15496	12.6631
2.15406	12.7567
2.15317	12.9292
2.15228	13.1051
2.15138	13.1901
2.15049	13.0761
2.1496	12.9897
2.14871	12.8506
2.14782	13.1317
2.14693	13.345
2.14604	13.21
2.14515	13.0915
2.14427	13.2019
2.14338	13.2758
2.14249	13.3647
2.14161	13.3274
2.14072	13.3922
2.13984	13.5885
2.13896	13.5946
2.13808	13.6517
2.13719	13.8678
2.13631	13.9265
2.13543	13.7182
2.13455	13.639
2.13368	13.813
2.1328	14.0496
2.13192	13.9847
2.13105	13.9992
2.13017	14.0769
2.1293	14.1139
2.12842	14.1248
2.12755	14.184
2.12668	14.2678
2.1258	14.3651
2.12493	14.4839
2.12406	14.5156
2.12319	14.6496
2.12232	14.922
2.12145	15.074
2.12059	15.082
2.11972	14.984
2.11885	15.0447
2.11799	15.0108
2.11712	14.9448
2.11626	15.0381
2.1154	15.0857
2.11453	15.1736
2.11367	15.1673
2.11281	15.0173
2.11195	15.0241
2.11109	15.2794
2.11023	15.3328
2.10937	15.3544
2.10851	15.8368
2.10766	15.9676
2.1068	15.6307
2.10594	15.474
2.10509	15.7305
2.10423	15.8163
2.10338	15.938
2.10253	16.1009
2.10168	16.0361
2.10082	15.8854
2.09997	15.9551
2.09912	15.9579
2.09827	16.0194
2.09742	16.2584
2.09658	16.2842
2.09573	16.3728
2.09488	16.724
2.09404	16.7863
2.09319	16.6062
2.09235	16.5394
2.0915	16.6868
2.09066	16.863
2.08982	16.9529
2.08897	16.945
2.08813	16.8457
2.08729	17.2663
2.08645	17.4888
2.08561	17.4563
2.08477	17.5088
2.08394	17.3554
2.0831	17.2922
2.08226	17.3504
2.08143	17.5109
2.08059	17.6949
2.07976	17.6891
2.07892	17.5174
2.07809	17.3886
2.07726	17.4074
2.07643	17.7731
2.07559	18.0697
2.07476	18.3482
2.07393	18.0143
2.0731	18.0282
2.07228	18.6783
2.07145	18.3946
2.07062	18.0013
2.06979	18.4069
2.06897	18.8265
2.06814	18.6049
2.06732	18.6573
2.06649	18.9086
2.06567	18.6979
2.06485	18.2647
2.06403	18.6442
2.0632	18.9413
2.06238	18.9052
2.06156	19.0128
2.06074	19.1112
2.05993	19.3794
2.05911	19.3595
2.05829	19.1369
2.05747	19.4082
2.05666	19.6333
2.05584	19.6125
2.05503	19.7205
2.05421	19.7756
2.0534	19.756
2.05259	19.9622
2.05177	20.0472
2.05096	20.0634
2.05015	20.1155
2.04934	20.0709
2.04853	20.3208
2.04772	20.5741
2.04691	20.6672
2.04611	20.7171
2.0453	20.609
2.04449	20.4944
2.04369	20.6294
2.04288	20.681
2.04208	20.6272
2.04127	20.8141
2.04047	21.1023
2.03967	21.0181
2.03886	21.0771
2.03806	21.1936
2.03726	21.2907
2.03646	21.4046
2.03566	21.4041
2.03486	21.6716
2.03407	21.8281
2.03327	21.6131
2.03247	21.4813
2.03167	21.6247
2.03088	21.8839
2.03008	21.8131
2.02929	21.7676
2.0285	21.904
2.0277	22.0965
2.02691	22.4302
2.02612	22.3834
2.02533	22.2455
2.02453	22.3077
2.02374	22.2624
2.02295	22.3758
2.02217	22.5304
2.02138	22.5644
2.02059	22.5734
2.0198	22.7067
2.01902	23.0069
2.01823	23.2412
2.01744	23.2149
2.01666	23.216
2.01588	23.2546
2.01509	23.3099
2.01431	23.2953
2.01353	23.2565
2.01275	23.3125
2.01196	23.4331
2.01118	23.6399
2.0104	23.8518
2.00963	23.7515
2.00885	23.5268
2.00807	23.7945
2.00729	24.0121
2.00651	23.9396
2.00574	23.9719
2.00496	24.1883
2.00419	24.463
2.00341	24.5002
2.00264	24.4176
2.00187	24.4739
2.00109	24.6846
2.00032	24.7921
