Name: Bornite Cu_5FeS_4
Type: Mineral
Class: Sulfides
Subclass: 
Particle Size: 125-500um
Sample No.: S-9A
Owner: JPL
Wavelength range: IR
Origin: USA, Arizona, Pinal County, Superior, Magma Mine
Collected by Burminco
Description: 





Measurement: Hemispherical reflectance
First Column: X
Second Column: Y
X Units:  Wavelength (micrometers)
Y Units:  Reflectance (percent)
First X Value: 15.3853
Last X Value: 2.00032
Number of X Values: 2256
Additional information: s09aa.txt
 
15.3853	17.7653
15.3397	17.9142
15.2945	18.1028
15.2495	18.1714
15.2048	17.9987
15.1603	17.7722
15.1161	17.8449
15.0722	18.0825
15.0285	18.1633
14.9851	18.0988
14.9419	18.1808
14.8989	18.07
14.8563	18.0516
14.8138	18.0747
14.7716	17.9072
14.7296	17.9479
14.6879	17.7986
14.6464	17.6931
14.6052	18.015
14.5641	18.0707
14.5233	18.0902
14.4828	18.2019
14.4424	18.1273
14.4023	17.9706
14.3624	18.1003
14.3227	18.1765
14.2833	18.059
14.244	17.944
14.205	17.945
14.1662	17.9105
14.1276	18.0716
14.0892	18.1796
14.051	18.1741
14.0131	18.3056
13.9753	18.2078
13.9377	18.1526
13.9004	18.1124
13.8632	18.1417
13.8262	18.251
13.7895	18.1279
13.7529	17.9226
13.7165	17.8789
13.6803	18.0261
13.6443	18.1498
13.6085	18.2623
13.5729	18.3939
13.5374	18.2411
13.5022	18.0904
13.4671	18.0917
13.4322	18.0622
13.3975	18.2318
13.363	18.3235
13.3286	18.2512
13.2944	18.2497
13.2604	18.1864
13.2266	18.1888
13.193	18.2504
13.1595	18.2427
13.1262	18.2013
13.093	18.3801
13.06	18.5218
13.0272	18.4247
12.9946	18.3157
12.9621	18.3139
12.9298	18.2759
12.8976	18.3866
12.8656	18.4516
12.8337	18.6182
12.8021	18.6606
12.7705	18.4668
12.7391	18.3832
12.7079	18.3268
12.6769	18.1002
12.6459	18.1939
12.6152	18.3979
12.5845	18.4401
12.5541	18.4739
12.5238	18.4479
12.4936	18.451
12.4635	18.5321
12.4337	18.4808
12.4039	18.3424
12.3743	18.2568
12.3448	18.3178
12.3155	18.2775
12.2863	18.2273
12.2573	18.1642
12.2284	18.2461
12.1996	18.3348
12.171	18.195
12.1425	18.2228
12.1141	18.3102
12.0859	18.3395
12.0578	18.248
12.0298	18.2648
12.0019	18.292
11.9742	18.3482
11.9466	18.3713
11.9192	18.1773
11.8918	18.239
11.8646	18.3791
11.8375	18.3319
11.8106	18.3331
11.7837	18.408
11.757	18.3396
11.7304	18.2652
11.7039	18.3786
11.6776	18.5331
11.6513	18.4517
11.6252	18.3162
11.5992	18.28
11.5733	18.262
11.5475	18.3097
11.5219	18.5054
11.4963	18.5275
11.4709	18.3848
11.4455	18.3312
11.4203	18.41
11.3952	18.4789
11.3702	18.4463
11.3454	18.3747
11.3206	18.3794
11.2959	18.5006
11.2714	18.5831
11.2469	18.6148
11.2226	18.6017
11.1983	18.5824
11.1742	18.4625
11.1502	18.4437
11.1263	18.4695
11.1024	18.5047
11.0787	18.4647
11.0551	18.4328
11.0316	18.4878
11.0081	18.509
10.9848	18.565
10.9616	18.6093
10.9385	18.5454
10.9154	18.5008
10.8925	18.5941
10.8697	18.6384
10.8469	18.5517
10.8243	18.4472
10.8017	18.5436
10.7793	18.5204
10.7569	18.4886
10.7346	18.5406
10.7125	18.5799
10.6904	18.5499
10.6684	18.513
10.6465	18.5748
10.6247	18.6785
10.6029	18.6727
10.5813	18.5989
10.5597	18.5573
10.5383	18.6288
10.5169	18.6392
10.4956	18.5651
10.4744	18.4878
10.4533	18.5417
10.4323	18.5542
10.4113	18.6497
10.3904	18.6739
10.3697	18.567
10.349	18.6098
10.3284	18.6627
10.3078	18.7017
10.2874	18.7198
10.267	18.6431
10.2467	18.7141
10.2265	18.8016
10.2064	18.7488
10.1863	18.7196
10.1663	18.6977
10.1464	18.673
10.1266	18.7458
10.1069	18.803
10.0872	18.9152
10.0676	18.94
10.0481	18.8403
10.0287	18.8231
10.0093	18.8362
9.99005	18.8238
9.97084	18.7958
9.95169	18.843
9.93263	18.8389
9.91364	18.833
9.89472	18.9387
9.87587	18.9654
9.8571	18.9607
9.83839	19.0423
9.81976	18.9837
9.80119	18.8671
9.78271	18.876
9.76428	18.9667
9.74592	19.0001
9.72764	19.0062
9.70943	19.0708
9.69128	19.0704
9.6732	19.1124
9.65518	19.1819
9.63724	19.09
9.61935	19.1012
9.60155	19.1437
9.5838	19.1855
9.56611	19.2428
9.5485	19.2939
9.53094	19.2841
9.51345	19.2653
9.49604	19.2513
9.47867	19.2583
9.46137	19.261
9.44414	19.3223
9.42697	19.4215
9.40986	19.5708
9.39281	19.6351
9.37583	19.587
9.35891	19.5857
9.34204	19.6763
9.32524	19.8177
9.3085	19.8378
9.29182	19.753
9.27519	19.7583
9.25863	19.8807
9.24213	19.8834
9.22568	19.9537
9.2093	20.0778
9.19297	19.9714
9.17669	19.7808
9.16048	19.7406
9.14433	19.6749
9.12823	19.7537
9.11218	19.8866
9.0962	19.8635
9.08027	19.8343
9.06439	19.8643
9.04858	19.7481
9.03281	19.7206
9.0171	19.8626
9.00145	20.0147
8.98585	19.95
8.9703	19.8715
8.9548	19.8964
8.93937	19.8464
8.92398	19.81
8.90865	19.8605
8.89337	19.8695
8.87814	19.7858
8.86296	19.766
8.84784	19.7546
8.83277	19.751
8.81774	19.7247
8.80277	19.6692
8.78786	19.756
8.77298	19.7392
8.75816	19.7077
8.7434	19.7208
8.72868	19.6232
8.714	19.6054
8.69938	19.5513
8.68481	19.6413
8.67029	19.6857
8.65581	19.5937
8.64139	19.5218
8.62701	19.4843
8.61268	19.5804
8.5984	19.7251
8.58416	19.8005
8.56997	19.7305
8.55583	19.7155
8.54174	19.6375
8.52769	19.577
8.51368	19.6901
8.49973	19.8573
8.48582	19.8242
8.47195	19.7723
8.45813	19.7776
8.44436	19.7497
8.43062	19.7225
8.41693	19.6802
8.4033	19.7043
8.3897	19.8121
8.37614	19.7938
8.36264	19.6876
8.34917	19.6501
8.33574	19.7074
8.32236	19.8975
8.30903	19.9719
8.29573	19.8185
8.28248	19.7531
8.26927	19.7722
8.2561	19.7489
8.24298	19.76
8.2299	19.7733
8.21685	19.7418
8.20385	19.7378
8.19089	19.7417
8.17797	19.6632
8.16509	19.6605
8.15225	19.563
8.13946	19.5486
8.1267	19.5506
8.11398	19.4643
8.10131	19.3824
8.08867	19.3645
8.07606	19.4131
8.0635	19.3938
8.05099	19.3421
8.0385	19.3187
8.02606	19.3486
8.01366	19.2911
8.00129	19.1384
7.98896	19.0701
7.97667	19.0868
7.96442	19.0674
7.9522	19.0196
7.94002	19.0182
7.92788	19.0501
7.91578	19.0965
7.90371	19.1172
7.89168	19.08
7.87969	19.0686
7.86773	19.0319
7.85581	19.0139
7.84392	19.0065
7.83207	18.9503
7.82026	18.9305
7.80849	18.9578
7.79674	18.9295
7.78503	18.9142
7.77337	18.9498
7.76173	19.0052
7.75012	19.0314
7.73856	18.992
7.72703	18.9417
7.71553	18.8837
7.70406	18.8652
7.69263	19.0058
7.68123	19.0771
7.66987	19.0084
7.65855	18.9238
7.64725	18.9123
7.63598	18.9388
7.62475	18.9182
7.61356	18.8967
7.60239	18.8456
7.59126	18.8419
7.58017	18.9377
7.5691	18.9467
7.55806	18.9034
7.54707	18.911
7.5361	18.929
7.52516	19.0135
7.51425	19.008
7.50338	18.8909
7.49253	18.9175
7.48172	19.0163
7.47094	19.0131
7.46019	18.9377
7.44947	18.849
7.43879	18.8908
7.42813	18.9578
7.4175	18.9529
7.4069	19.0082
7.39634	19.0085
7.3858	18.9851
7.37529	19.0041
7.36482	18.9555
7.35437	18.9008
7.34396	19.0009
7.33357	18.9955
7.32321	18.8988
7.31288	18.9677
7.30258	18.9538
7.29231	18.9376
7.28207	19.0338
7.27185	19.0743
7.26167	18.9847
7.25152	18.9201
7.24139	18.9986
7.23129	19.0853
7.22122	19.0633
7.21117	19.0853
7.20116	19.0797
7.19117	19.0208
7.18121	19.0262
7.17128	19.1149
7.16137	19.1437
7.1515	19.1463
7.14164	19.1502
7.13182	19.1724
7.12203	19.1326
7.11225	19.056
7.10251	19.0907
7.0928	19.1056
7.08311	19.0636
7.07344	19.1134
7.06381	19.1182
7.0542	19.091
7.04461	19.1868
7.03506	19.1089
7.02552	19.0562
7.01601	19.0763
7.00653	19.1018
6.99708	19.1298
6.98765	19.1008
6.97824	19.1156
6.96886	19.1898
6.95951	19.2782
6.95018	19.1298
6.94087	19.043
6.9316	19.0802
6.92234	19.0631
6.91311	19.0518
6.90391	19.1155
6.89473	19.0648
6.88557	18.9867
6.87644	19.1247
6.86733	19.527
6.85824	19.5665
6.84918	19.3054
6.84015	19.1645
6.83114	19.1748
6.82215	19.1849
6.81319	19.078
6.80424	19.0322
6.79532	19.1658
6.78643	19.2163
6.77756	19.1002
6.76871	19.0148
6.75989	19.0491
6.75109	19.0923
6.74231	19.0953
6.73355	19.1103
6.72482	19.1229
6.71611	19.137
6.70742	19.1546
6.69875	19.1104
6.69011	19.2172
6.68149	19.309
6.67289	19.2265
6.66431	19.0985
6.65576	19.0533
6.64722	19.2512
6.63871	19.6214
6.63022	19.4804
6.62175	19.1872
6.61331	19.15
6.60488	19.1712
6.59648	19.2698
6.5881	19.2471
6.57974	19.3385
6.5714	19.5297
6.56308	19.2972
6.55478	19.0987
6.54651	19.0441
6.53825	19.0326
6.53001	19.1101
6.5218	19.2543
6.51361	19.2302
6.50544	19.3169
6.49729	19.693
6.48915	19.7694
6.48104	19.4937
6.47295	19.3247
6.46488	19.2715
6.45683	19.2492
6.4488	19.2366
6.44079	19.2402
6.4328	19.3257
6.42482	19.4529
6.41687	19.8488
6.40894	19.8103
6.40103	19.3462
6.39314	19.1743
6.38526	19.1498
6.37741	19.2363
6.36957	19.3151
6.36176	19.1684
6.35396	19.2107
6.34618	19.426
6.33843	19.2447
6.33069	19.0198
6.32297	19.0597
6.31527	19.0125
6.30758	19.018
6.29992	19.0245
6.29227	18.9997
6.28465	19.0473
6.27704	19.0134
6.26945	18.9645
6.26188	18.9552
6.25432	18.9692
6.24679	18.9799
6.23927	19.0236
6.23177	19.0053
6.22429	18.9395
6.21683	18.9228
6.20938	18.9391
6.20195	18.9924
6.19454	19.031
6.18715	19.2468
6.17978	19.2119
6.17242	19.017
6.16508	19.1035
6.15776	19.1677
6.15045	19.1043
6.14317	19.0672
6.1359	19.0128
6.12864	19.0061
6.12141	19.104
6.11419	19.3352
6.10699	19.1437
6.0998	18.9308
6.09263	18.9776
6.08549	19.0328
6.07835	19.2221
6.07123	19.3459
6.06413	19.1372
6.05705	19.3037
6.04998	19.7541
6.04293	19.4362
6.0359	19.0572
6.02888	18.9679
6.02187	18.9958
6.01489	19.0702
6.00792	18.9942
6.00096	18.9958
5.99403	19.1226
5.98711	19.1608
5.9802	19.0909
5.97331	19.1318
5.96644	19.1698
5.95958	19.0082
5.95274	18.9319
5.94591	19.046
5.9391	19.417
5.9323	19.3694
5.92552	19.0735
5.91876	19.0454
5.91201	19.0368
5.90528	19.0239
5.89856	19.2654
5.89186	19.2273
5.88517	19.3071
5.8785	19.3403
5.87184	19.0393
5.8652	19.0391
5.85857	19.0187
5.85196	19.0291
5.84536	18.9945
5.83878	18.9948
5.83221	19.0793
5.82566	19.2393
5.81912	19.2485
5.81259	19.0123
5.80608	18.9393
5.79959	18.9689
5.79311	18.9603
5.78665	18.9664
5.78019	18.9943
5.77376	19.1276
5.76734	19.3271
5.76093	19.2228
5.75453	19.0571
5.74815	19.0723
5.74179	19.0416
5.73543	19.0069
5.7291	18.9552
5.72277	19.0434
5.71646	19.0916
5.71017	19.1077
5.70389	18.9981
5.69762	18.9043
5.69136	18.9094
5.68513	18.9029
5.6789	18.9269
5.67268	18.9156
5.66648	18.8313
5.6603	18.8856
5.65413	18.9289
5.64797	19.041
5.64182	19.1318
5.63569	18.9707
5.62957	18.8532
5.62347	18.8157
5.61737	18.8452
5.61129	18.8371
5.60522	18.8265
5.59917	18.8306
5.59313	18.8219
5.5871	18.9309
5.58109	19.0008
5.57509	18.9527
5.5691	18.8575
5.56312	18.8245
5.55716	18.7644
5.55121	18.8454
5.54528	18.88
5.53935	18.8487
5.53344	18.7744
5.52754	18.7387
5.52166	18.7627
5.51578	18.7517
5.50992	18.7095
5.50407	18.7301
5.49823	18.7426
5.49241	18.7737
5.4866	18.8445
5.4808	18.9045
5.47501	18.901
5.46923	18.9109
5.46347	18.9468
5.45772	18.8348
5.45198	18.7935
5.44625	18.8318
5.44054	18.8248
5.43484	18.7758
5.42914	18.8482
5.42347	18.9233
5.4178	18.8236
5.41214	18.8128
5.4065	18.9025
5.40087	18.9477
5.39525	18.9577
5.38964	18.959
5.38404	18.8814
5.37846	18.7891
5.37288	18.7423
5.36732	18.762
5.36177	18.7934
5.35623	18.7994
5.35071	18.8871
5.34519	18.9035
5.33968	18.8493
5.33419	18.8281
5.32871	18.8085
5.32324	18.8096
5.31778	18.8206
5.31233	18.7738
5.30689	18.7974
5.30147	18.8462
5.29605	18.8746
5.29065	18.8757
5.28525	18.7828
5.27987	18.7574
5.2745	18.7677
5.26914	18.7287
5.26379	18.7087
5.25845	18.788
5.25312	18.8667
5.24781	18.8713
5.2425	18.8433
5.23721	18.8413
5.23192	18.831
5.22665	18.8052
5.22138	18.7746
5.21613	18.8783
5.21089	18.9302
5.20566	18.887
5.20044	18.8848
5.19522	18.887
5.19002	18.9221
5.18483	18.8983
5.17965	18.8465
5.17448	18.8852
5.16933	18.9309
5.16418	18.8887
5.15904	18.8657
5.15391	18.9242
5.14879	18.9983
5.14368	18.9152
5.13859	18.8098
5.1335	18.774
5.12842	18.8268
5.12335	18.8888
5.1183	18.8793
5.11325	18.8818
5.10821	18.8827
5.10318	18.89
5.09817	18.8538
5.09316	18.8537
5.08816	18.8185
5.08317	18.8559
5.07819	18.9242
5.07322	18.8446
5.06826	18.8299
5.06331	18.8627
5.05837	18.9133
5.05344	18.933
5.04852	18.9611
5.04361	18.9113
5.03871	18.8634
5.03382	18.8802
5.02894	18.8093
5.02406	18.8387
5.0192	18.9188
5.01435	18.85
5.0095	18.7907
5.00467	18.8012
4.99984	18.8042
4.99502	18.8583
4.99021	18.9265
4.98542	18.9209
4.98063	18.8864
4.97585	18.9027
4.97108	18.8392
4.96632	18.787
4.96156	18.8043
4.95682	18.8579
4.95209	18.8713
4.94736	18.8661
4.94264	18.9114
4.93794	18.8816
4.93324	18.8435
4.92855	18.8934
4.92387	18.8712
4.9192	18.7815
4.91453	18.7848
4.90988	18.8784
4.90524	18.9001
4.9006	18.8919
4.89597	18.8889
4.89135	18.9355
4.88674	18.9287
4.88214	18.9256
4.87755	19.0014
4.87296	19.0499
4.86839	19.0948
4.86382	19.0397
4.85926	18.9632
4.85471	18.9618
4.85017	18.9973
4.84564	18.9885
4.84111	18.9673
4.8366	18.9791
4.83209	19.0175
4.82759	19.0249
4.8231	19.0576
4.81862	19.0352
4.81415	18.9797
4.80968	19.0244
4.80522	19.0405
4.80077	19.0773
4.79633	19.0903
4.7919	19.0649
4.78747	19.0041
4.78306	19.0355
4.77865	19.0636
4.77425	19.0186
4.76986	19.0132
4.76547	19.0962
4.7611	19.0456
4.75673	18.9398
4.75237	18.9657
4.74802	19.0794
4.74367	19.0855
4.73934	19.0702
4.73501	19.0972
4.73069	19.075
4.72638	19.0911
4.72207	19.0332
4.71777	19.002
4.71348	19.0182
4.7092	18.999
4.70493	18.9701
4.70066	18.9619
4.69641	19.0046
4.69216	19.0858
4.68791	19.1169
4.68368	19.1041
4.67945	19.0931
4.67523	19.0443
4.67102	18.9654
4.66682	19.0364
4.66262	19.0474
4.65843	19.0691
4.65425	19.0852
4.65007	18.9846
4.64591	18.9886
4.64175	19.0462
4.6376	19.0702
4.63345	19.0804
4.62932	19.0943
4.62519	19.12
4.62106	19.0889
4.61695	19.0258
4.61284	19.0039
4.60874	18.9493
4.60465	18.9277
4.60056	19.0199
4.59648	19.0519
4.59241	18.9691
4.58835	18.9907
4.58429	19.0668
4.58024	19.0145
4.5762	19.0627
4.57216	19.0789
4.56814	19.0205
4.56411	19.0663
4.5601	19.0458
4.55609	18.9947
4.55209	19.0214
4.5481	19.0432
4.54411	19.0836
4.54013	19.0482
4.53616	19.0512
4.5322	19.0648
4.52824	19.0392
4.52429	19.0135
4.52034	19.0033
4.51641	19.0647
4.51247	19.1174
4.50855	19.0865
4.50463	18.9939
4.50072	18.9416
4.49682	19.0069
4.49292	19.0153
4.48903	18.9531
4.48515	19.0286
4.48127	19.0456
4.4774	19.0098
4.47354	19.0516
4.46968	19.1379
4.46584	19.1328
4.46199	19.0571
4.45815	19.0962
4.45432	19.0793
4.4505	18.9821
4.44668	18.9425
4.44287	18.9383
4.43907	18.9528
4.43527	18.9561
4.43148	18.9559
4.4277	18.9287
4.42392	18.9842
4.42015	18.9865
4.41638	19.0141
4.41262	19.0074
4.40887	19.0354
4.40513	19.1007
4.40139	19.0881
4.39765	19.0723
4.39393	19.0392
4.39021	19.0056
4.38649	19.0204
4.38278	19.0664
4.37908	19.0097
4.37539	18.891
4.3717	18.9126
4.36801	19.0275
4.36434	19.0558
4.36067	19.0404
4.357	19.0927
4.35335	19.1203
4.34969	19.0439
4.34605	18.9985
4.34241	19.0309
4.33877	19.0195
4.33514	19.0233
4.33152	19.0649
4.32791	19.0845
4.3243	18.9996
4.32069	18.9264
4.3171	18.9577
4.31351	19.02
4.30992	18.9969
4.30634	19.0217
4.30277	19.08
4.2992	19.0345
4.29564	19.0059
4.29208	19.0021
4.28853	18.9274
4.28499	18.9054
4.28145	18.9748
4.27792	18.9927
4.27439	18.9959
4.27087	18.952
4.26735	18.9683
4.26384	18.9843
4.26034	18.9713
4.25684	18.9752
4.25335	18.9774
4.24986	18.934
4.24638	18.9463
4.24291	18.9333
4.23944	18.9597
4.23598	18.9632
4.23252	18.8923
4.22906	18.8847
4.22562	18.968
4.22218	19.0122
4.21874	18.9487
4.21531	18.9076
4.21189	18.9855
4.20847	19.0774
4.20506	19.0527
4.20165	18.9971
4.19825	18.972
4.19485	19.0386
4.19146	19.103
4.18807	19.1613
4.18469	19.1716
4.18132	19.1368
4.17795	19.1036
4.17458	19.0284
4.17123	19.0097
4.16787	19.0306
4.16453	19.0319
4.16118	19.0378
4.15785	19.0809
4.15451	19.1061
4.15119	19.0412
4.14787	19.0098
4.14455	19.0269
4.14124	19.0607
4.13794	19.0854
4.13464	19.0816
4.13134	19.0422
4.12805	19.0305
4.12477	19.0282
4.12149	19.0009
4.11822	19.0027
4.11495	19.055
4.11168	19.0876
4.10843	19.0552
4.10517	19.052
4.10192	19.0682
4.09868	19.0566
4.09545	19.0614
4.09221	19.0531
4.08899	19.0053
4.08576	19.0217
4.08255	19.0165
4.07933	18.9832
4.07613	18.9604
4.07292	18.9301
4.06973	19.0026
4.06654	19.1025
4.06335	19.132
4.06017	19.0413
4.05699	18.9513
4.05382	18.992
4.05065	18.9943
4.04749	18.988
4.04433	18.9708
4.04118	19.0244
4.03803	19.0491
4.03489	18.9967
4.03175	18.9882
4.02862	18.9496
4.02549	18.995
4.02237	19.1029
4.01925	19.1338
4.01614	19.0265
4.01303	18.9259
4.00993	18.9939
4.00683	19.0628
4.00373	19.0162
4.00064	19.017
3.99756	19.0299
3.99448	19.0576
3.9914	18.9843
3.98833	18.9789
3.98527	18.9662
3.98221	18.8906
3.97915	18.8849
3.9761	18.9381
3.97305	18.9638
3.97001	18.97
3.96697	18.9952
3.96394	18.9908
3.96091	19.0107
3.95789	18.9903
3.95487	19.0522
3.95186	19.0617
3.94885	19.0025
3.94584	18.9514
3.94284	18.9511
3.93984	18.9385
3.93685	18.8751
3.93386	18.9722
3.93088	19.0466
3.9279	18.9696
3.92493	18.9651
3.92196	18.986
3.919	19.016
3.91604	19.0676
3.91308	19.0668
3.91013	19.0319
3.90718	19.0008
3.90424	19.0214
3.9013	19.0266
3.89837	19.0673
3.89544	19.0703
3.89252	19.0209
3.8896	19.0121
3.88668	19.0324
3.88377	19.0439
3.88086	19.0863
3.87796	19.0204
3.87506	18.9604
3.87217	18.9536
3.86928	18.9317
3.86639	19.0163
3.86351	19.121
3.86064	19.0786
3.85776	19.0395
3.8549	19.0356
3.85203	19.118
3.84917	19.0599
3.84631	18.9338
3.84346	18.9297
3.84062	18.9335
3.83777	18.9773
3.83494	19.0057
3.8321	19.0438
3.82927	19.0786
3.82644	19.0361
3.82362	19.006
3.82081	18.9917
3.81799	18.9716
3.81518	18.9263
3.81238	19.0157
3.80958	19.0143
3.80678	19.005
3.80399	19.0439
3.8012	19.0813
3.79841	19.0293
3.79563	18.9569
3.79286	18.8919
3.79008	18.8936
3.78731	19.0167
3.78455	19.1139
3.78179	19.0308
3.77903	18.9641
3.77628	19.0055
3.77353	19.0936
3.77079	19.0998
3.76805	18.9758
3.76531	18.8872
3.76258	18.9293
3.75985	18.9651
3.75713	18.948
3.7544	18.9464
3.75169	18.9909
3.74898	18.993
3.74627	19.0346
3.74356	19.0578
3.74086	18.9745
3.73816	18.9873
3.73547	19.0665
3.73278	19.0849
3.7301	18.9876
3.72741	18.8782
3.72474	18.8817
3.72206	18.9771
3.71939	19.0854
3.71673	19.0582
3.71406	19.002
3.71141	18.9803
3.70875	18.9874
3.7061	19.0727
3.70345	19.0302
3.70081	18.9369
3.69817	18.978
3.69553	18.9865
3.6929	19.0064
3.69027	19.0614
3.68765	19.0606
3.68503	19.0033
3.68241	19.0365
3.6798	19.0722
3.67719	19.0304
3.67458	18.9718
3.67198	18.9625
3.66938	19.0585
3.66678	19.062
3.66419	19.0378
3.66161	19.017
3.65902	19.0135
3.65644	19.0456
3.65387	19.1067
3.65129	19.0845
3.64872	18.987
3.64616	18.9579
3.64359	19.0113
3.64103	19.0466
3.63848	19.0711
3.63593	19.076
3.63338	19.0384
3.63084	18.9719
3.6283	18.9922
3.62576	19.0398
3.62322	19.0448
3.62069	19.0834
3.61817	19.0734
3.61564	18.9568
3.61312	18.9431
3.61061	18.9705
3.6081	19.0426
3.60559	19.0738
3.60308	19.146
3.60058	19.1588
3.59808	19.0509
3.59558	18.994
3.59309	19.0521
3.59061	19.1172
3.58812	19.0147
3.58564	18.9711
3.58316	19.0161
3.58069	19.0422
3.57822	19.0397
3.57575	18.9873
3.57328	18.9657
3.57082	18.9731
3.56836	18.9108
3.56591	18.8417
3.56346	18.945
3.56101	19.0504
3.55857	19.0549
3.55613	19.0039
3.55369	19.0106
3.55126	19.0429
3.54883	19.0557
3.5464	19.1192
3.54397	19.1078
3.54155	19.0689
3.53914	19.0515
3.53672	18.9984
3.53431	18.9538
3.5319	18.9381
3.5295	18.891
3.5271	18.9415
3.5247	18.9747
3.52231	18.9731
3.51991	18.9616
3.51753	18.9702
3.51514	19.0846
3.51276	19.164
3.51038	19.1402
3.50801	19.0944
3.50563	19.0855
3.50327	19.0667
3.5009	19.0472
3.49854	19.0684
3.49618	19.0722
3.49382	19.0763
3.49147	19.0079
3.48912	18.9764
3.48677	19.0146
3.48443	19.0414
3.48209	19.0309
3.47975	19.0233
3.47742	18.9936
3.47509	19.0504
3.47276	19.1022
3.47044	19.0805
3.46812	19.0191
3.4658	19.046
3.46348	19.1384
3.46117	19.1417
3.45886	19.0239
3.45656	18.8912
3.45425	18.8336
3.45195	18.9404
3.44966	19.0639
3.44736	19.1272
3.44507	19.0753
3.44279	18.9373
3.4405	18.9141
3.43822	18.9348
3.43594	19.0038
3.43367	18.9884
3.43139	19.0029
3.42912	19.0681
3.42686	19.1184
3.42459	19.0677
3.42233	19.0122
3.42007	19.0045
3.41782	19.0356
3.41557	19.0685
3.41332	19.1333
3.41108	19.0228
3.40883	18.887
3.40659	18.9548
3.40435	18.9755
3.40212	19.0411
3.39989	19.1071
3.39766	19.1858
3.39544	19.1527
3.39322	19.0643
3.391	19.0188
3.38878	18.934
3.38657	18.9743
3.38436	18.99
3.38215	19.0736
3.37994	19.0594
3.37774	18.9459
3.37554	18.9275
3.37335	18.9074
3.37115	19.0112
3.36896	19.1475
3.36678	19.0619
3.36459	18.9715
3.36241	19.0449
3.36023	19.04
3.35805	18.9937
3.35588	18.944
3.35371	18.9065
3.35154	18.9143
3.34938	18.9202
3.34721	18.9365
3.34505	18.9943
3.3429	18.9468
3.34074	18.8868
3.33859	18.9374
3.33644	18.9159
3.3343	18.8608
3.33215	18.8879
3.33001	18.8882
3.32788	18.9192
3.32574	18.9525
3.32361	18.9202
3.32148	18.9028
3.31936	19.0252
3.31723	18.9789
3.31511	18.9102
3.31299	18.9838
3.31088	18.9344
3.30876	18.887
3.30665	18.9283
3.30455	18.9405
3.30244	18.9986
3.30034	18.9669
3.29824	18.9554
3.29614	18.9865
3.29405	18.9124
3.29196	18.9426
3.28987	18.984
3.28778	18.9394
3.2857	18.9231
3.28362	18.8689
3.28154	18.9623
3.27946	19.0369
3.27739	18.9047
3.27532	18.8703
3.27325	18.8858
3.27119	18.8393
3.26913	18.8517
3.26707	18.9875
3.26501	19.0099
3.26295	18.9713
3.2609	18.9649
3.25885	18.9778
3.2568	19.0101
3.25476	18.8783
3.25272	18.8557
3.25068	18.9341
3.24864	18.8788
3.24661	18.8929
3.24458	18.9275
3.24255	18.8882
3.24052	18.9723
3.2385	19.0195
3.23648	18.9052
3.23446	18.9196
3.23244	19.0107
3.23043	18.9419
3.22841	18.8722
3.2264	19.0136
3.2244	19.0807
3.22239	19.0069
3.22039	18.9391
3.21839	18.9555
3.2164	18.8407
3.2144	18.7287
3.21241	18.8794
3.21042	19.0082
3.20844	18.91
3.20645	18.8122
3.20447	18.841
3.20249	18.8493
3.20051	18.8034
3.19854	18.8499
3.19657	18.8731
3.1946	18.8609
3.19263	18.9138
3.19067	18.9337
3.1887	18.8217
3.18674	18.8263
3.18479	18.8476
3.18283	18.7862
3.18088	18.8493
3.17893	18.9401
3.17698	19.0035
3.17504	19.0089
3.17309	18.8874
3.17115	18.88
3.16921	18.962
3.16728	18.9378
3.16534	18.7917
3.16341	18.8861
3.16148	19.0014
3.15956	18.9797
3.15763	18.9483
3.15571	18.8926
3.15379	18.8502
3.15187	18.8716
3.14996	18.8638
3.14805	18.7878
3.14614	18.8228
3.14423	18.914
3.14232	18.9082
3.14042	18.9328
3.13852	18.9755
3.13662	18.8805
3.13472	18.8959
3.13283	18.9568
3.13094	18.9962
3.12905	18.9411
3.12716	18.7574
3.12528	18.739
3.12339	18.8323
3.12151	18.8995
3.11964	18.9083
3.11776	18.8819
3.11589	18.9741
3.11401	18.9445
3.11214	18.8235
3.11028	18.8057
3.10841	18.8002
3.10655	18.7824
3.10469	18.8469
3.10283	18.9243
3.10098	18.8841
3.09912	18.8557
3.09727	18.9039
3.09542	18.9323
3.09358	18.7876
3.09173	18.7574
3.08989	18.8114
3.08805	18.8328
3.08621	18.9375
3.08437	18.9107
3.08254	18.7235
3.08071	18.6827
3.07888	18.7706
3.07705	18.8559
3.07523	18.8866
3.0734	18.8629
3.07158	18.8932
3.06977	18.9101
3.06795	18.8603
3.06613	18.8064
3.06432	18.8635
3.06251	18.7881
3.0607	18.735
3.0589	18.7337
3.0571	18.7878
3.05529	18.89
3.05349	18.9069
3.0517	18.8474
3.0499	18.8165
3.04811	18.8702
3.04632	18.8676
3.04453	18.8815
3.04274	18.9399
3.04096	18.9946
3.03918	18.8999
3.0374	18.7822
3.03562	18.7693
3.03384	18.7819
3.03207	18.8535
3.03029	18.876
3.02852	18.7764
3.02676	18.8525
3.02499	18.9918
3.02323	18.9024
3.02146	18.7711
3.0197	18.6877
3.01795	18.6911
3.01619	18.7946
3.01444	18.8465
3.01269	18.8563
3.01094	18.8476
3.00919	18.8094
3.00744	18.8113
3.0057	18.8433
3.00396	18.7363
3.00222	18.7263
3.00048	18.7545
2.99875	18.7661
2.99701	18.8228
2.99528	18.8689
2.99355	18.8071
2.99183	18.7146
2.9901	18.6906
2.98838	18.7787
2.98666	18.7842
2.98494	18.7902
2.98322	18.8067
2.9815	18.7353
2.97979	18.5769
2.97808	18.504
2.97637	18.5348
2.97466	18.6477
2.97295	18.7319
2.97125	18.7837
2.96955	18.9568
2.96785	19.0567
2.96615	18.8633
2.96446	18.6546
2.96276	18.6534
2.96107	18.8089
2.95938	18.8588
2.95769	18.8427
2.95601	18.8277
2.95432	18.7987
2.95264	18.7941
2.95096	18.7731
2.94928	18.7706
2.9476	18.7338
2.94593	18.6613
2.94425	18.5429
2.94258	18.5463
2.94092	18.6008
2.93925	18.7201
2.93758	18.8002
2.93592	18.8012
2.93426	18.7441
2.9326	18.6643
2.93094	18.7105
2.92928	18.7194
2.92763	18.6783
2.92598	18.7776
2.92433	18.9554
2.92268	19.0044
2.92103	18.7648
2.91939	18.6418
2.91775	18.7138
2.9161	18.8291
2.91447	18.9399
2.91283	18.7808
2.91119	18.59
2.90956	18.7032
2.90793	18.8748
2.9063	18.8912
2.90467	18.7733
2.90304	18.7272
2.90142	18.8149
2.89979	18.8223
2.89817	18.7752
2.89656	18.7474
2.89494	18.7736
2.89332	18.6977
2.89171	18.6044
2.8901	18.6344
2.88849	18.7532
2.88688	18.7541
2.88527	18.7183
2.88367	18.706
2.88206	18.7075
2.88046	18.6728
2.87886	18.7626
2.87727	18.826
2.87567	18.7667
2.87408	18.7528
2.87248	18.8181
2.87089	18.6894
2.8693	18.6373
2.86772	18.618
2.86613	18.6451
2.86455	18.7638
2.86297	18.8121
2.86139	18.8258
2.85981	18.9151
2.85823	18.8233
2.85666	18.6423
2.85508	18.5545
2.85351	18.678
2.85194	18.7948
2.85038	18.7564
2.84881	18.4588
2.84724	18.4243
2.84568	18.6406
2.84412	18.7093
2.84256	18.6741
2.841	18.7414
2.83945	18.7317
2.83789	18.7164
2.83634	18.7348
2.83479	18.7901
2.83324	18.9062
2.83169	18.799
2.83015	18.6474
2.82861	18.6772
2.82706	18.6213
2.82552	18.5316
2.82398	18.6878
2.82245	18.8435
2.82091	18.7894
2.81938	18.7513
2.81784	18.617
2.81631	18.5201
2.81479	18.579
2.81326	18.5628
2.81173	18.677
2.81021	18.7385
2.80869	18.4967
2.80716	18.418
2.80565	18.4984
2.80413	18.6454
2.80261	18.9299
2.8011	18.9065
2.79959	18.7152
2.79808	18.6446
2.79657	18.6242
2.79506	18.6262
2.79355	18.4905
2.79205	18.3151
2.79055	18.3548
2.78904	18.6579
2.78754	18.7946
2.78605	18.7283
2.78455	18.7128
2.78306	18.7312
2.78156	18.7118
2.78007	18.5596
2.77858	18.4891
2.77709	18.5954
2.77561	18.5632
2.77412	18.5333
2.77264	18.6941
2.77116	18.7606
2.76968	18.8013
2.7682	18.9023
2.76672	18.8475
2.76524	18.6271
2.76377	18.5636
2.7623	18.5708
2.76083	18.5303
2.75936	18.5293
2.75789	18.6091
2.75642	18.792
2.75496	18.8417
2.7535	18.6189
2.75203	18.6041
2.75057	18.6295
2.74912	18.5607
2.74766	18.5002
2.7462	18.4843
2.74475	18.5826
2.7433	18.716
2.74185	18.8806
2.7404	19.0122
2.73895	18.9195
2.7375	18.7889
2.73606	18.7725
2.73462	18.724
2.73318	18.6177
2.73174	18.4991
2.7303	18.5104
2.72886	18.5679
2.72742	18.68
2.72599	18.9265
2.72456	18.9286
2.72313	18.7305
2.7217	18.8738
2.72027	19.0868
2.71884	18.8407
2.71742	18.6432
2.71599	18.6491
2.71457	18.6517
2.71315	18.688
2.71173	18.9108
2.71032	18.8124
2.7089	18.666
2.70748	18.755
2.70607	18.7467
2.70466	18.6076
2.70325	18.5684
2.70184	18.6556
2.70043	18.6429
2.69903	18.5196
2.69762	18.6222
2.69622	18.7629
2.69482	18.8606
2.69342	18.9279
2.69202	18.7835
2.69062	18.6668
2.68923	18.5977
2.68783	18.5238
2.68644	18.6174
2.68505	18.755
2.68366	18.8623
2.68227	18.7696
2.68089	18.6459
2.6795	18.7208
2.67812	18.73
2.67673	18.9319
2.67535	18.8931
2.67397	18.678
2.6726	18.6842
2.67122	19.0641
2.66984	19.1562
2.66847	18.9736
2.6671	18.9915
2.66572	18.9583
2.66435	18.9305
2.66299	18.7258
2.66162	18.759
2.66025	18.7131
2.65889	18.5511
2.65753	18.6067
2.65616	18.6573
2.65481	18.6503
2.65345	18.8558
2.65209	18.8523
2.65073	18.576
2.64938	18.4005
2.64803	18.4508
2.64667	18.6549
2.64532	18.7398
2.64397	18.6206
2.64263	18.5893
2.64128	18.636
2.63994	18.4751
2.63859	18.5667
2.63725	18.5978
2.63591	18.4599
2.63457	18.4253
2.63323	18.4246
2.6319	18.6704
2.63056	18.9621
2.62923	18.7348
2.62789	18.657
2.62656	18.7876
2.62523	18.7287
2.6239	18.6021
2.62258	18.6201
2.62125	18.6877
2.61993	18.5564
2.6186	18.4942
2.61728	18.79
2.61596	18.8301
2.61464	18.7126
2.61332	18.6228
2.61201	18.6125
2.61069	18.7229
2.60938	18.7109
2.60807	18.6638
2.60675	18.7935
2.60544	18.8901
2.60414	18.6923
2.60283	18.6109
2.60152	18.6729
2.60022	18.5993
2.59891	18.5644
2.59761	18.7364
2.59631	19.0225
2.59501	19.3725
2.59371	18.9654
2.59242	18.5775
2.59112	18.6537
2.58983	18.6679
2.58853	18.6275
2.58724	18.6994
2.58595	18.7177
2.58466	18.7936
2.58338	18.7311
2.58209	18.5705
2.5808	18.6277
2.57952	18.5789
2.57824	18.5343
2.57695	18.5392
2.57567	18.5499
2.5744	18.7126
2.57312	18.7288
2.57184	18.5768
2.57057	18.6329
2.56929	18.7046
2.56802	18.5016
2.56675	18.4572
2.56548	18.5886
2.56421	18.739
2.56294	18.8272
2.56168	18.7868
2.56041	18.6959
2.55915	18.5534
2.55789	18.4411
2.55662	18.506
2.55536	18.6203
2.5541	18.5803
2.55285	18.6083
2.55159	18.7464
2.55034	18.6855
2.54908	18.482
2.54783	18.4208
2.54658	18.5039
2.54533	18.6063
2.54408	18.5576
2.54283	18.5435
2.54159	18.6267
2.54034	18.6092
2.5391	18.5938
2.53785	18.5533
2.53661	18.4987
2.53537	18.4147
2.53413	18.5081
2.53289	18.5854
2.53166	18.5879
2.53042	18.4083
2.52919	18.3603
2.52795	18.4884
2.52672	18.4423
2.52549	18.3704
2.52426	18.3933
2.52303	18.4898
2.52181	18.4951
2.52058	18.5033
2.51936	18.5444
2.51813	18.4518
2.51691	18.4071
2.51569	18.3442
2.51447	18.3682
2.51325	18.5766
2.51203	18.6089
2.51082	18.5781
2.5096	18.4491
2.50839	18.4378
2.50717	18.4897
2.50596	18.5051
2.50475	18.4932
2.50354	18.4751
2.50233	18.5207
2.50113	18.4918
2.49992	18.4767
2.49872	18.3605
2.49751	18.3326
2.49631	18.4425
2.49511	18.4371
2.49391	18.4642
2.49271	18.4653
2.49151	18.4097
2.49031	18.5448
2.48912	18.5466
2.48792	18.4442
2.48673	18.5107
2.48554	18.5671
2.48435	18.5594
2.48316	18.4299
2.48197	18.2446
2.48078	18.2585
2.4796	18.402
2.47841	18.4578
2.47723	18.448
2.47604	18.473
2.47486	18.5092
2.47368	18.5771
2.4725	18.4216
2.47132	18.2617
2.47014	18.3391
2.46897	18.4788
2.46779	18.4717
2.46662	18.4812
2.46545	18.3749
2.46427	18.3679
2.4631	18.4105
2.46193	18.4412
2.46077	18.3925
2.4596	18.4593
2.45843	18.5272
2.45727	18.4451
2.4561	18.2906
2.45494	18.2422
2.45378	18.3603
2.45262	18.6047
2.45146	18.5818
2.4503	18.4407
2.44914	18.5139
2.44799	18.4438
2.44683	18.3584
2.44568	18.3121
2.44452	18.4529
2.44337	18.4659
2.44222	18.4516
2.44107	18.5134
2.43992	18.499
2.43877	18.3964
2.43763	18.2919
2.43648	18.3159
2.43534	18.3228
2.43419	18.4086
2.43305	18.569
2.43191	18.3318
2.43077	18.2216
2.42963	18.2804
2.42849	18.3467
2.42736	18.2123
2.42622	18.376
2.42509	18.5263
2.42395	18.4558
2.42282	18.4004
2.42169	18.3149
2.42056	18.4342
2.41943	18.4416
2.4183	18.3058
2.41717	18.367
2.41605	18.3109
2.41492	18.2924
2.4138	18.3399
2.41267	18.4732
2.41155	18.5951
2.41043	18.5998
2.40931	18.5468
2.40819	18.4222
2.40707	18.3772
2.40595	18.3638
2.40484	18.2728
2.40372	18.3204
2.40261	18.2785
2.4015	18.3332
2.40039	18.4853
2.39928	18.4251
2.39817	18.3914
2.39706	18.3658
2.39595	18.3755
2.39484	18.3365
2.39374	18.3741
2.39263	18.4343
2.39153	18.4256
2.39043	18.5256
2.38932	18.4656
2.38822	18.2723
2.38712	18.2513
2.38603	18.3739
2.38493	18.4131
2.38383	18.4151
2.38274	18.4
2.38164	18.394
2.38055	18.5139
2.37946	18.5609
2.37836	18.3732
2.37727	18.327
2.37618	18.3456
2.3751	18.3194
2.37401	18.3477
2.37292	18.482
2.37184	18.5076
2.37075	18.3672
2.36967	18.2753
2.36859	18.3239
2.3675	18.4581
2.36642	18.3952
2.36534	18.2233
2.36427	18.383
2.36319	18.4383
2.36211	18.3457
2.36104	18.3205
2.35996	18.3931
2.35889	18.2836
2.35781	18.2779
2.35674	18.3011
2.35567	18.4052
2.3546	18.4198
2.35353	18.341
2.35247	18.3123
2.3514	18.2667
2.35033	18.4796
2.34927	18.5758
2.3482	18.4872
2.34714	18.3897
2.34608	18.313
2.34502	18.2068
2.34396	18.1461
2.3429	18.2045
2.34184	18.3482
2.34078	18.3731
2.33973	18.4536
2.33867	18.3867
2.33762	18.1746
2.33656	18.3085
2.33551	18.4316
2.33446	18.4722
2.33341	18.4441
2.33236	18.4533
2.33131	18.4774
2.33026	18.4988
2.32922	18.4515
2.32817	18.4213
2.32712	18.3883
2.32608	18.4087
2.32504	18.5198
2.324	18.4295
2.32295	18.3909
2.32191	18.4216
2.32087	18.2488
2.31984	18.231
2.3188	18.2557
2.31776	18.3166
2.31673	18.282
2.31569	18.1085
2.31466	18.0062
2.31362	18.2012
2.31259	18.3949
2.31156	18.4348
2.31053	18.5024
2.3095	18.5227
2.30847	18.6245
2.30745	18.4382
2.30642	18.2841
2.3054	18.3178
2.30437	18.2728
2.30335	18.2719
2.30232	18.3584
2.3013	18.339
2.30028	18.3117
2.29926	18.3399
2.29824	18.3688
2.29722	18.2925
2.29621	18.4062
2.29519	18.4632
2.29417	18.3327
2.29316	18.3221
2.29215	18.348
2.29113	18.3673
2.29012	18.3463
2.28911	18.342
2.2881	18.3652
2.28709	18.3136
2.28608	18.3426
2.28507	18.2758
2.28407	18.2151
2.28306	18.2911
2.28206	18.2727
2.28105	18.1783
2.28005	18.1766
2.27905	18.3465
2.27805	18.5318
2.27705	18.5022
2.27605	18.4519
2.27505	18.2556
2.27405	18.3335
2.27305	18.4539
2.27206	18.4718
2.27106	18.369
2.27007	18.2165
2.26907	18.294
2.26808	18.2178
2.26709	18.1639
2.2661	18.2703
2.26511	18.3352
2.26412	18.325
2.26313	18.1692
2.26214	18.2141
2.26116	18.3511
2.26017	18.4662
2.25919	18.504
2.2582	18.3711
2.25722	18.2525
2.25624	18.1469
2.25526	18.149
2.25428	18.0448
2.2533	18.1902
2.25232	18.2224
2.25134	18.2189
2.25036	18.3981
2.24939	18.3811
2.24841	18.2977
2.24744	18.2394
2.24646	18.0077
2.24549	18.0761
2.24452	18.2838
2.24355	18.3482
2.24257	18.3789
2.24161	18.3314
2.24064	18.3011
2.23967	18.311
2.2387	18.4642
2.23774	18.5186
2.23677	18.1604
2.23581	18.0077
2.23484	18.2235
2.23388	18.2893
2.23292	18.0905
2.23196	18.0619
2.231	18.2766
2.23004	18.4738
2.22908	18.4158
2.22812	18.2602
2.22716	18.2267
2.22621	18.3861
2.22525	18.4194
2.2243	18.2876
2.22334	18.2016
2.22239	18.1721
2.22144	18.251
2.22049	18.3778
2.21953	18.5191
2.21859	18.424
2.21764	18.3165
2.21669	18.4059
2.21574	18.3676
2.21479	18.2113
2.21385	18.1657
2.2129	18.158
2.21196	18.1846
2.21102	18.2466
2.21007	18.2244
2.20913	18.1954
2.20819	18.3241
2.20725	18.4172
2.20631	18.2216
2.20537	18.105
2.20444	18.2363
2.2035	18.3724
2.20256	18.3181
2.20163	18.307
2.20069	18.3057
2.19976	18.297
2.19883	18.3018
2.19789	18.3912
2.19696	18.3863
2.19603	18.2322
2.1951	18.0618
2.19417	18.2731
2.19325	18.4993
2.19232	18.268
2.19139	18.0695
2.19047	18.0689
2.18954	18.2078
2.18862	18.4674
2.18769	18.3402
2.18677	18.2156
2.18585	18.4918
2.18493	18.5831
2.18401	18.3488
2.18309	18.211
2.18217	18.2928
2.18125	18.4934
2.18033	18.277
2.17942	18.2546
2.1785	18.3469
2.17759	18.1072
2.17667	18.0996
2.17576	18.2577
2.17485	18.3939
2.17393	18.3596
2.17302	18.2181
2.17211	18.2
2.1712	18.1993
2.17029	18.239
2.16939	18.1817
2.16848	18.1366
2.16757	18.2047
2.16667	18.2038
2.16576	18.2445
2.16486	18.2529
2.16395	18.1911
2.16305	18.2472
2.16215	18.0739
2.16125	18.0662
2.16035	18.2274
2.15945	18.1899
2.15855	18.0892
2.15765	18.2209
2.15675	18.3462
2.15586	18.2902
2.15496	18.2335
2.15406	18.142
2.15317	18.1088
2.15228	18.2476
2.15138	18.5072
2.15049	18.4529
2.1496	18.2749
2.14871	18.2775
2.14782	18.0942
2.14693	18.0233
2.14604	18.1387
2.14515	18.2333
2.14427	18.2722
2.14338	18.1545
2.14249	18.0201
2.14161	18.2692
2.14072	18.2924
2.13984	18.0635
2.13896	18.1819
2.13808	18.2854
2.13719	18.1652
2.13631	18.0887
2.13543	18.0627
2.13455	18.0928
2.13368	18.2488
2.1328	18.3877
2.13192	18.1384
2.13105	18.2776
2.13017	18.3114
2.1293	18.2139
2.12842	18.4223
2.12755	18.4344
2.12668	18.2057
2.1258	18.1187
2.12493	18.1806
2.12406	18.3197
2.12319	18.1994
2.12232	17.9131
2.12145	18.2063
2.12059	18.334
2.11972	18.319
2.11885	18.3264
2.11799	17.9952
2.11712	17.9906
2.11626	18.2792
2.1154	18.2651
2.11453	18.1841
2.11367	18.301
2.11281	18.328
2.11195	18.3691
2.11109	18.225
2.11023	18.0593
2.10937	17.9339
2.10851	17.8756
2.10766	18.0029
2.1068	18.3179
2.10594	18.2753
2.10509	18.0863
2.10423	18.1416
2.10338	18.1592
2.10253	18.1495
2.10168	18.3688
2.10082	18.2841
2.09997	18.0935
2.09912	18.2994
2.09827	18.3262
2.09742	18.3368
2.09658	18.3507
2.09573	18.317
2.09488	18.4171
2.09404	18.423
2.09319	18.1579
2.09235	17.9918
2.0915	18.2036
2.09066	18.2465
2.08982	17.9647
2.08897	17.9814
2.08813	18.1482
2.08729	18.1136
2.08645	17.8256
2.08561	17.5959
2.08477	17.8181
2.08394	18.1405
2.0831	18.0309
2.08226	18.2141
2.08143	18.5312
2.08059	18.5639
2.07976	18.4326
2.07892	18.2216
2.07809	18.2086
2.07726	18.196
2.07643	18.3161
2.07559	18.5246
2.07476	18.2142
2.07393	17.8086
2.0731	18.1394
2.07228	18.5039
2.07145	18.6247
2.07062	18.5032
2.06979	18.1764
2.06897	18.2368
2.06814	18.6764
2.06732	18.719
2.06649	18.4244
2.06567	17.7063
2.06485	17.4921
2.06403	17.9166
2.0632	18.1292
2.06238	18.1004
2.06156	18.1702
2.06074	18.2292
2.05993	18.1424
2.05911	17.9677
2.05829	17.9422
2.05747	18.187
2.05666	18.1164
2.05584	18.1876
2.05503	18.3502
2.05421	18.4343
2.0534	18.3053
2.05259	18.0381
2.05177	18.0872
2.05096	18.2458
2.05015	18.1416
2.04934	18.1298
2.04853	18.0859
2.04772	18.0503
2.04691	18.1749
2.04611	18.1775
2.0453	18.0613
2.04449	18.032
2.04369	18.1199
2.04288	18.2165
2.04208	18.1622
2.04127	18.2501
2.04047	18.0776
2.03967	17.9716
2.03886	18.1043
2.03806	18.2842
2.03726	18.2126
2.03646	17.9969
2.03566	17.9849
2.03486	18.1731
2.03407	18.3228
2.03327	18.3903
2.03247	18.3091
2.03167	18.2729
2.03088	18.2184
2.03008	18.0345
2.02929	17.8512
2.0285	17.9613
2.0277	18.0021
2.02691	17.9016
2.02612	18.0841
2.02533	18.3123
2.02453	18.3286
2.02374	18.3418
2.02295	18.2393
2.02217	18.0595
2.02138	18.0369
2.02059	18.0414
2.0198	17.9442
2.01902	17.9866
2.01823	17.9622
2.01744	17.9468
2.01666	17.8936
2.01588	17.8906
2.01509	18.035
2.01431	18.0267
2.01353	18.134
2.01275	18.2297
2.01196	18.2079
2.01118	18.0873
2.0104	17.9203
2.00963	18.0076
2.00885	18.0985
2.00807	18.0057
2.00729	18.1827
2.00651	18.2848
2.00574	18.1517
2.00496	18.1792
2.00419	18.313
2.00341	18.1901
2.00264	18.0686
2.00187	18.0884
2.00109	18.069
2.00032	18.0628
