Name: Chlorite
Type: Mineral
Class: Silicates
Subclass: Phyllosilicates
Particle Size: 45-125um
Sample No.: PS-12F
Owner: JPL
Wavelength range: IR
Origin: USA, New Mexico
Collected by Ward's
Description: 





Measurement: Hemispherical reflectance
First Column: X
Second Column: Y
X Units:  Wavelength (micrometers)
Y Units:  Reflectance (percent)
First X Value: 15.3853
Last X Value: 2.00032
Number of X Values: 2256
Additional information: ps12fa.txt
 
15.3853	3.85386
15.3397	3.74769
15.2945	3.67939
15.2495	3.92177
15.2048	4.00898
15.1603	3.87416
15.1161	3.9514
15.0722	3.9194
15.0285	3.67477
14.9851	3.39771
14.9419	3.35787
14.8989	3.5666
14.8563	3.50231
14.8138	3.31913
14.7716	3.3853
14.7296	3.36227
14.6879	3.03145
14.6464	2.72563
14.6052	2.63499
14.5641	2.69907
14.5233	2.55088
14.4828	2.43436
14.4424	2.36981
14.4023	2.31149
14.3624	2.28464
14.3227	2.21238
14.2833	2.15266
14.244	2.14554
14.205	2.207
14.1662	2.27241
14.1276	2.15478
14.0892	1.99557
14.051	2.17853
14.0131	2.22874
13.9753	2.2918
13.9377	2.5781
13.9004	2.57994
13.8632	2.6467
13.8262	2.72281
13.7895	2.67037
13.7529	2.68116
13.7165	2.83009
13.6803	2.92659
13.6443	3.05185
13.6085	3.16407
13.5729	3.2586
13.5374	3.08415
13.5022	3.08591
13.4671	3.04237
13.4322	3.04957
13.3975	3.04781
13.363	3.22399
13.3286	3.4111
13.2944	3.38438
13.2604	3.27046
13.2266	3.17798
13.193	2.95439
13.1595	2.93592
13.1262	3.01263
13.093	2.97464
13.06	2.90181
13.0272	2.91084
12.9946	3.05591
12.9621	3.03311
12.9298	2.88315
12.8976	2.80188
12.8656	2.72232
12.8337	2.72446
12.8021	2.72952
12.7705	2.58523
12.7391	2.47722
12.7079	2.47337
12.6769	2.46343
12.6459	2.4876
12.6152	2.47208
12.5845	2.50808
12.5541	2.65091
12.5238	2.76807
12.4936	2.73005
12.4635	2.5898
12.4337	2.51299
12.4039	2.53281
12.3743	2.47693
12.3448	2.40438
12.3155	2.27255
12.2863	2.25018
12.2573	2.26216
12.2284	2.07385
12.1996	1.93469
12.171	1.96235
12.1425	1.95614
12.1141	1.96637
12.0859	1.95274
12.0578	1.9359
12.0298	1.83603
12.0019	1.70149
11.9742	1.87774
11.9466	2.13762
11.9192	2.28286
11.8918	2.22682
11.8646	2.09829
11.8375	2.15829
11.8106	2.25665
11.7837	2.33414
11.757	2.49729
11.7304	2.49206
11.7039	2.46185
11.6776	2.53525
11.6513	2.66645
11.6252	2.73719
11.5992	2.73157
11.5733	2.81671
11.5475	2.97044
11.5219	3.10108
11.4963	3.09751
11.4709	3.12559
11.4455	3.11065
11.4203	3.11925
11.3952	3.19907
11.3702	3.18775
11.3454	3.31191
11.3206	3.46046
11.2959	3.48779
11.2714	3.52523
11.2469	3.66292
11.2226	3.78435
11.1983	3.83248
11.1742	3.87281
11.1502	3.9037
11.1263	3.98629
11.1024	4.08648
11.0787	4.19136
11.0551	4.17161
11.0316	4.22483
11.0081	4.38022
10.9848	4.58401
10.9616	4.80975
10.9385	4.90159
10.9154	4.99777
10.8925	5.06673
10.8697	5.13175
10.8469	5.22364
10.8243	5.34139
10.8017	5.49546
10.7793	5.67787
10.7569	5.91741
10.7346	6.10307
10.7125	6.29599
10.6904	6.48396
10.6684	6.66891
10.6465	6.86431
10.6247	7.06766
10.6029	7.18232
10.5813	7.35522
10.5597	7.69066
10.5383	7.93016
10.5169	8.22759
10.4956	8.54742
10.4744	8.81807
10.4533	9.14743
10.4323	9.43092
10.4113	9.55883
10.3904	9.82801
10.3697	10.0394
10.349	10.1761
10.3284	10.3949
10.3078	10.5837
10.2874	10.7874
10.267	11.0108
10.2467	11.3265
10.2265	11.73
10.2064	12.0675
10.1863	12.298
10.1663	12.6144
10.1464	12.9441
10.1266	13.3065
10.1069	13.6851
10.0872	14.0272
10.0676	14.3161
10.0481	14.7536
10.0287	15.0791
10.0093	15.3583
9.99005	15.5769
9.97084	15.7856
9.95169	15.9759
9.93263	15.9968
9.91364	15.9651
9.89472	15.9909
9.87587	16.0769
9.8571	16.1357
9.83839	16.1756
9.81976	16.1656
9.80119	16.1447
9.78271	16.2807
9.76428	16.1722
9.74592	15.9599
9.72764	15.6678
9.70943	15.3944
9.69128	15.2032
9.6732	14.9655
9.65518	14.751
9.63724	14.5755
9.61935	14.3265
9.60155	14.1415
9.5838	14.0088
9.56611	14.0016
9.5485	13.871
9.53094	13.5825
9.51345	13.3586
9.49604	13.2689
9.47867	13.0824
9.46137	12.9065
9.44414	12.7083
9.42697	12.2979
9.40986	11.5686
9.39281	10.9119
9.37583	10.3759
9.35891	9.807
9.34204	9.09692
9.32524	8.34775
9.3085	7.64004
9.29182	6.82658
9.27519	6.15296
9.25863	5.66411
9.24213	5.25022
9.22568	4.94839
9.2093	4.50868
9.19297	4.12806
9.17669	3.88367
9.16048	3.69794
9.14433	3.42969
9.12823	3.18516
9.11218	3.05843
9.0962	2.87928
9.08027	2.68735
9.06439	2.52705
9.04858	2.46865
9.03281	2.4247
9.0171	2.42588
9.00145	2.30301
8.98585	2.09449
8.9703	1.99203
8.9548	2.11154
8.93937	2.19119
8.92398	2.1223
8.90865	2.03674
8.89337	1.95816
8.87814	1.94072
8.86296	1.93957
8.84784	1.94485
8.83277	1.883
8.81774	1.86504
8.80277	1.91604
8.78786	1.84594
8.77298	1.8395
8.75816	1.90366
8.7434	1.99075
8.72868	1.92704
8.714	1.85088
8.69938	1.82504
8.68481	1.84871
8.67029	1.97517
8.65581	1.93308
8.64139	1.84023
8.62701	1.715
8.61268	1.68075
8.5984	1.84831
8.58416	2.1622
8.56997	2.32811
8.55583	2.34895
8.54174	2.48965
8.52769	2.54786
8.51368	2.3514
8.49973	2.35365
8.48582	2.63084
8.47195	2.72064
8.45813	2.61645
8.44436	2.71538
8.43062	2.80336
8.41693	2.79481
8.4033	3.02023
8.3897	3.21084
8.37614	3.23504
8.36264	3.21122
8.34917	3.26192
8.33574	3.33792
8.32236	3.49231
8.30903	3.52117
8.29573	3.52941
8.28248	3.50019
8.26927	3.62345
8.2561	3.78489
8.24298	3.71943
8.2299	3.76272
8.21685	3.87783
8.20385	3.93162
8.19089	3.93824
8.17797	3.92064
8.16509	3.88007
8.15225	3.94873
8.13946	3.90787
8.1267	3.83531
8.11398	3.82437
8.10131	3.85864
8.08867	3.97216
8.07606	3.92401
8.0635	3.76284
8.05099	3.76119
8.0385	3.89857
8.02606	3.93857
8.01366	3.83669
8.00129	3.85706
7.98896	3.935
7.97667	3.95973
7.96442	3.92521
7.9522	3.81924
7.94002	3.78722
7.92788	3.8881
7.91578	3.92056
7.90371	3.84524
7.89168	3.9126
7.87969	3.95716
7.86773	3.96268
7.85581	4.01578
7.84392	4.07966
7.83207	4.1534
7.82026	4.16911
7.80849	4.1581
7.79674	4.17201
7.78503	4.20416
7.77337	4.26468
7.76173	4.3353
7.75012	4.32068
7.73856	4.33188
7.72703	4.35204
7.71553	4.29103
7.70406	4.3826
7.69263	4.53912
7.68123	4.65064
7.66987	4.62891
7.65855	4.52959
7.64725	4.48576
7.63598	4.55003
7.62475	4.70147
7.61356	4.74067
7.60239	4.73495
7.59126	4.73887
7.58017	4.81457
7.5691	4.88522
7.55806	4.97043
7.54707	5.05486
7.5361	4.99836
7.52516	5.01682
7.51425	5.12142
7.50338	5.12516
7.49253	5.11421
7.48172	5.21502
7.47094	5.32066
7.46019	5.36083
7.44947	5.39449
7.43879	5.48495
7.42813	5.50527
7.4175	5.45682
7.4069	5.46881
7.39634	5.55621
7.3858	5.64614
7.37529	5.71723
7.36482	5.8723
7.35437	5.94605
7.34396	5.88272
7.33357	5.79081
7.32321	5.88375
7.31288	6.03811
7.30258	6.01718
7.29231	6.01762
7.28207	6.08278
7.27185	6.15947
7.26167	6.19924
7.25152	6.275
7.24139	6.34644
7.23129	6.38366
7.22122	6.39203
7.21117	6.42247
7.20116	6.47984
7.19117	6.55031
7.18121	6.66214
7.17128	6.63675
7.16137	6.63251
7.1515	6.65797
7.14164	6.70115
7.13182	6.77586
7.12203	6.86868
7.11225	6.8742
7.10251	6.87508
7.0928	6.8566
7.08311	6.86122
7.07344	6.95405
7.06381	7.04577
7.0542	7.05987
7.04461	7.01838
7.03506	7.04339
7.02552	7.0988
7.01601	7.1117
7.00653	7.12891
6.99708	7.16072
6.98765	7.16259
6.97824	7.17958
6.96886	7.20322
6.95951	7.30723
6.95018	7.29613
6.94087	7.23765
6.9316	7.34059
6.92234	7.31013
6.91311	7.2514
6.90391	7.28124
6.89473	7.26544
6.88557	7.23429
6.87644	7.23693
6.86733	7.24826
6.85824	7.28154
6.84918	7.30326
6.84015	7.21817
6.83114	7.25243
6.82215	7.32521
6.81319	7.26156
6.80424	7.16202
6.79532	7.1809
6.78643	7.26184
6.77756	7.13698
6.76871	7.0224
6.75989	7.04327
6.75109	7.13269
6.74231	7.14813
6.73355	7.10094
6.72482	7.10958
6.71611	7.02601
6.70742	6.94771
6.69875	6.99181
6.69011	6.99532
6.68149	6.97851
6.67289	6.95139
6.66431	6.95464
6.65576	6.96198
6.64722	6.95439
6.63871	6.95363
6.63022	6.94246
6.62175	6.88617
6.61331	6.79651
6.60488	6.76086
6.59648	6.83209
6.5881	6.80591
6.57974	6.7211
6.5714	6.72009
6.56308	6.69506
6.55478	6.62227
6.54651	6.55666
6.53825	6.53848
6.53001	6.55228
6.5218	6.5551
6.51361	6.44354
6.50544	6.45292
6.49729	6.56106
6.48915	6.54065
6.48104	6.44329
6.47295	6.32294
6.46488	6.25033
6.45683	6.29221
6.4488	6.30876
6.44079	6.30325
6.4328	6.31793
6.42482	6.27785
6.41687	6.26407
6.40894	6.15836
6.40103	6.13908
6.39314	6.20151
6.38526	6.14704
6.37741	6.1064
6.36957	5.99322
6.36176	5.89996
6.35396	5.90744
6.34618	5.91196
6.33843	5.87687
6.33069	5.83483
6.32297	5.80933
6.31527	5.76075
6.30758	5.7501
6.29992	5.7023
6.29227	5.64925
6.28465	5.73514
6.27704	5.79188
6.26945	5.76304
6.26188	5.66081
6.25432	5.67411
6.24679	5.73771
6.23927	5.68687
6.23177	5.62674
6.22429	5.65243
6.21683	5.72962
6.20938	5.8064
6.20195	5.7733
6.19454	5.6783
6.18715	5.72549
6.17978	5.73832
6.17242	5.6773
6.16508	5.71001
6.15776	5.75842
6.15045	5.85915
6.14317	5.89165
6.1359	5.85894
6.12864	5.92031
6.12141	5.97104
6.11419	5.92243
6.10699	5.89795
6.0998	5.94747
6.09263	6.00976
6.08549	6.00658
6.07835	6.09771
6.07123	6.22511
6.06413	6.18087
6.05705	6.15081
6.04998	6.25056
6.04293	6.27542
6.0359	6.2328
6.02888	6.29637
6.02187	6.34849
6.01489	6.36671
6.00792	6.36341
6.00096	6.35452
5.99403	6.41389
5.98711	6.43386
5.9802	6.39018
5.97331	6.433
5.96644	6.49434
5.95958	6.40621
5.95274	6.41566
5.94591	6.56228
5.9391	6.67781
5.9323	6.63984
5.92552	6.6212
5.91876	6.6464
5.91201	6.62288
5.90528	6.65166
5.89856	6.73061
5.89186	6.80102
5.88517	6.94348
5.8785	6.95958
5.87184	6.96707
5.8652	7.01576
5.85857	7.04173
5.85196	7.1099
5.84536	7.16522
5.83878	7.29519
5.83221	7.40657
5.82566	7.40986
5.81912	7.42697
5.81259	7.55538
5.80608	7.67359
5.79959	7.71421
5.79311	7.72476
5.78665	7.7388
5.78019	7.89058
5.77376	8.08462
5.76734	8.17438
5.76093	8.12946
5.75453	8.08464
5.74815	8.16302
5.74179	8.28053
5.73543	8.27271
5.7291	8.23782
5.72277	8.3046
5.71646	8.35943
5.71017	8.38091
5.70389	8.43925
5.69762	8.44727
5.69136	8.3663
5.68513	8.38464
5.6789	8.49193
5.67268	8.51378
5.66648	8.50458
5.6603	8.51835
5.65413	8.49749
5.64797	8.5465
5.64182	8.5517
5.63569	8.48453
5.62957	8.41657
5.62347	8.42011
5.61737	8.5402
5.61129	8.57293
5.60522	8.57367
5.59917	8.62317
5.59313	8.67627
5.5871	8.76848
5.58109	8.88342
5.57509	8.91668
5.5691	8.8871
5.56312	8.90322
5.55716	8.93793
5.55121	8.96912
5.54528	9.01224
5.53935	9.07807
5.53344	9.16929
5.52754	9.20236
5.52166	9.22854
5.51578	9.3825
5.50992	9.47733
5.50407	9.45619
5.49823	9.49568
5.49241	9.59018
5.4866	9.61218
5.4808	9.62349
5.47501	9.7011
5.46923	9.76984
5.46347	9.88166
5.45772	9.91187
5.45198	9.89057
5.44625	9.89836
5.44054	9.91453
5.43484	9.93964
5.42914	9.84683
5.42347	9.78056
5.4178	9.77039
5.41214	9.80157
5.4065	9.75126
5.40087	9.68703
5.39525	9.67415
5.38964	9.63913
5.38404	9.62772
5.37846	9.63194
5.37288	9.56238
5.36732	9.57106
5.36177	9.56707
5.35623	9.51288
5.35071	9.54741
5.34519	9.59405
5.33968	9.63536
5.33419	9.61785
5.32871	9.63798
5.32324	9.70445
5.31778	9.76785
5.31233	9.77004
5.30689	9.71544
5.30147	9.64757
5.29605	9.67647
5.29065	9.72402
5.28525	9.73467
5.27987	9.787
5.2745	9.81642
5.26914	9.85479
5.26379	9.90589
5.25845	9.97026
5.25312	10.0295
5.24781	10.0329
5.2425	10.0323
5.23721	10.0911
5.23192	10.0856
5.22665	10.1083
5.22138	10.1843
5.21613	10.2806
5.21089	10.2752
5.20566	10.273
5.20044	10.3018
5.19522	10.312
5.19002	10.3761
5.18483	10.3516
5.17965	10.3042
5.17448	10.3102
5.16933	10.3847
5.16418	10.3576
5.15904	10.3457
5.15391	10.4355
5.14879	10.4465
5.14368	10.3923
5.13859	10.4258
5.1335	10.4863
5.12842	10.4958
5.12335	10.5001
5.1183	10.5089
5.11325	10.5939
5.10821	10.6292
5.10318	10.5992
5.09817	10.6004
5.09316	10.5831
5.08816	10.6051
5.08317	10.6188
5.07819	10.5831
5.07322	10.6006
5.06826	10.6213
5.06331	10.6592
5.05837	10.7405
5.05344	10.7288
5.04852	10.6993
5.04361	10.7438
5.03871	10.7964
5.03382	10.8585
5.02894	10.887
5.02406	10.9304
5.0192	10.8854
5.01435	10.7741
5.0095	10.7529
5.00467	10.8747
4.99984	10.9552
4.99502	11.0486
4.99021	11.1588
4.98542	11.2167
4.98063	11.2086
4.97585	11.1972
4.97108	11.2503
4.96632	11.324
4.96156	11.3889
4.95682	11.5005
4.95209	11.6035
4.94736	11.6698
4.94264	11.7527
4.93794	11.8736
4.93324	11.9327
4.92855	11.9824
4.92387	12.1171
4.9192	12.2302
4.91453	12.2386
4.90988	12.3562
4.90524	12.5748
4.9006	12.6979
4.89597	12.7605
4.89135	12.8092
4.88674	12.9817
4.88214	13.1163
4.87755	13.1908
4.87296	13.3044
4.86839	13.394
4.86382	13.4357
4.85926	13.4796
4.85471	13.6197
4.85017	13.8308
4.84564	13.921
4.84111	14.0044
4.8366	14.1638
4.83209	14.2278
4.82759	14.2615
4.8231	14.3859
4.81862	14.5242
4.81415	14.5269
4.80968	14.5717
4.80522	14.7469
4.80077	14.8797
4.79633	14.9812
4.7919	15.1312
4.78747	15.2814
4.78306	15.4151
4.77865	15.4875
4.77425	15.6092
4.76986	15.7861
4.76547	15.901
4.7611	16.0367
4.75673	16.1955
4.75237	16.2779
4.74802	16.4478
4.74367	16.616
4.73934	16.6976
4.73501	16.8956
4.73069	17.0524
4.72638	17.1795
4.72207	17.3189
4.71777	17.4058
4.71348	17.5127
4.7092	17.541
4.70493	17.6192
4.70066	17.7764
4.69641	17.887
4.69216	18.0049
4.68791	18.1238
4.68368	18.2137
4.67945	18.3358
4.67523	18.4612
4.67102	18.6471
4.66682	18.8022
4.66262	18.8903
4.65843	18.9902
4.65425	19.1399
4.65007	19.2715
4.64591	19.3957
4.64175	19.5329
4.6376	19.633
4.63345	19.7093
4.62932	19.8696
4.62519	19.9776
4.62106	20.0719
4.61695	20.225
4.61284	20.3736
4.60874	20.5497
4.60465	20.6799
4.60056	20.8392
4.59648	21.0595
4.59241	21.2034
4.58835	21.3292
4.58429	21.421
4.58024	21.5778
4.5762	21.743
4.57216	21.8769
4.56814	21.9837
4.56411	22.1771
4.5601	22.3452
4.55609	22.497
4.55209	22.7091
4.5481	22.8846
4.54411	22.9656
4.54013	23.0048
4.53616	23.1555
4.5322	23.3268
4.52824	23.4346
4.52429	23.5118
4.52034	23.6082
4.51641	23.6593
4.51247	23.7575
4.50855	23.9283
4.50463	24.0413
4.50072	24.1202
4.49682	24.1159
4.49292	24.1294
4.48903	24.2914
4.48515	24.443
4.48127	24.5847
4.4774	24.7008
4.47354	24.7887
4.46968	24.838
4.46584	24.8827
4.46199	25.0214
4.45815	25.1541
4.45432	25.2541
4.4505	25.3694
4.44668	25.4374
4.44287	25.5506
4.43907	25.644
4.43527	25.7515
4.43148	25.9085
4.4277	26.0369
4.42392	26.0604
4.42015	26.1483
4.41638	26.2416
4.41262	26.3096
4.40887	26.428
4.40513	26.5729
4.40139	26.6387
4.39765	26.6848
4.39393	26.7306
4.39021	26.8225
4.38649	26.92
4.38278	27.0528
4.37908	27.1653
4.37539	27.2268
4.3717	27.3189
4.36801	27.4469
4.36434	27.5953
4.36067	27.6538
4.357	27.6925
4.35335	27.7801
4.34969	27.8499
4.34605	27.8926
4.34241	27.9526
4.33877	28.1113
4.33514	28.2741
4.33152	28.3661
4.32791	28.423
4.3243	28.4904
4.32069	28.6152
4.3171	28.7349
4.31351	28.7415
4.30992	28.7295
4.30634	28.7697
4.30277	28.8651
4.2992	28.9809
4.29564	29.071
4.29208	29.1629
4.28853	29.2293
4.28499	29.2694
4.28145	29.2947
4.27792	29.3149
4.27439	29.3737
4.27087	29.4693
4.26735	29.538
4.26384	29.5732
4.26034	29.6293
4.25684	29.6688
4.25335	29.7587
4.24986	29.8461
4.24638	29.8649
4.24291	29.9508
4.23944	30.0095
4.23598	29.9692
4.23252	29.9938
4.22906	30.1632
4.22562	30.2615
4.22218	30.2481
4.21874	30.2247
4.21531	30.2789
4.21189	30.3761
4.20847	30.4436
4.20506	30.3764
4.20165	30.3571
4.19825	30.4486
4.19485	30.5332
4.19146	30.6107
4.18807	30.6376
4.18469	30.7057
4.18132	30.7779
4.17795	30.7982
4.17458	30.8271
4.17123	30.8942
4.16787	30.9687
4.16453	30.9755
4.16118	30.9751
4.15785	31.0223
4.15451	31.1014
4.15119	31.1595
4.14787	31.2101
4.14455	31.2135
4.14124	31.2604
4.13794	31.3532
4.13464	31.3287
4.13134	31.282
4.12805	31.3136
4.12477	31.3615
4.12149	31.4295
4.11822	31.4814
4.11495	31.4835
4.11168	31.4389
4.10843	31.5417
4.10517	31.668
4.10192	31.6878
4.09868	31.6316
4.09545	31.6271
4.09221	31.6296
4.08899	31.6296
4.08576	31.7237
4.08255	31.7252
4.07933	31.6556
4.07613	31.6902
4.07292	31.8102
4.06973	31.8007
4.06654	31.7141
4.06335	31.6943
4.06017	31.7503
4.05699	31.8227
4.05382	31.855
4.05065	31.8268
4.04749	31.7927
4.04433	31.7949
4.04118	31.7945
4.03803	31.8299
4.03489	31.9026
4.03175	31.879
4.02862	31.8415
4.02549	31.8577
4.02237	31.8791
4.01925	31.8787
4.01614	31.8352
4.01303	31.8297
4.00993	31.8249
4.00683	31.7908
4.00373	31.8095
4.00064	31.8254
3.99756	31.7913
3.99448	31.8385
3.9914	31.9036
3.98833	31.8554
3.98527	31.802
3.98221	31.7791
3.97915	31.7414
3.9761	31.7216
3.97305	31.7242
3.97001	31.7164
3.96697	31.7268
3.96394	31.8063
3.96091	31.8603
3.95789	31.8338
3.95487	31.7972
3.95186	31.7206
3.94885	31.6949
3.94584	31.6968
3.94284	31.649
3.93984	31.6276
3.93685	31.6265
3.93386	31.6458
3.93088	31.604
3.9279	31.5489
3.92493	31.5642
3.92196	31.5925
3.919	31.5398
3.91604	31.5261
3.91308	31.4953
3.91013	31.4873
3.90718	31.5035
3.90424	31.4762
3.9013	31.3973
3.89837	31.4226
3.89544	31.4242
3.89252	31.3241
3.8896	31.2345
3.88668	31.2268
3.88377	31.2066
3.88086	31.1774
3.87796	31.1006
3.87506	31.041
3.87217	31.0549
3.86928	30.9909
3.86639	30.8905
3.86351	30.8774
3.86064	30.9092
3.85776	30.8697
3.8549	30.8096
3.85203	30.8192
3.84917	30.7821
3.84631	30.7061
3.84346	30.722
3.84062	30.6232
3.83777	30.4988
3.83494	30.4595
3.8321	30.4582
3.82927	30.4789
3.82644	30.4633
3.82362	30.3521
3.82081	30.2564
3.81799	30.2892
3.81518	30.2881
3.81238	30.2371
3.80958	30.2127
3.80678	30.17
3.80399	30.0501
3.8012	29.9658
3.79841	29.9668
3.79563	29.9842
3.79286	29.9396
3.79008	29.8709
3.78731	29.8775
3.78455	29.8391
3.78179	29.7604
3.77903	29.6959
3.77628	29.6305
3.77353	29.5596
3.77079	29.5169
3.76805	29.5313
3.76531	29.5465
3.76258	29.5036
3.75985	29.4256
3.75713	29.3198
3.7544	29.2559
3.75169	29.2196
3.74898	29.1299
3.74627	28.9879
3.74356	28.8947
3.74086	28.9283
3.73816	28.9736
3.73547	28.9084
3.73278	28.776
3.7301	28.741
3.72741	28.7172
3.72474	28.633
3.72206	28.6075
3.71939	28.6173
3.71673	28.526
3.71406	28.4575
3.71141	28.4443
3.70875	28.4125
3.7061	28.3089
3.70345	28.2679
3.70081	28.2688
3.69817	28.147
3.69553	27.9932
3.6929	28.0092
3.69027	27.9707
3.68765	27.913
3.68503	27.8767
3.68241	27.7852
3.6798	27.6959
3.67719	27.6881
3.67458	27.66
3.67198	27.584
3.66938	27.4736
3.66678	27.3441
3.66419	27.2322
3.66161	27.2001
3.65902	27.2164
3.65644	27.1384
3.65387	27.0375
3.65129	26.9869
3.64872	26.9125
3.64616	26.8788
3.64359	26.8955
3.64103	26.7826
3.63848	26.6248
3.63593	26.5076
3.63338	26.4797
3.63084	26.4216
3.6283	26.3037
3.62576	26.2601
3.62322	26.2227
3.62069	26.1431
3.61817	26.0863
3.61564	25.9791
3.61312	25.8357
3.61061	25.7373
3.6081	25.6371
3.60559	25.6045
3.60308	25.5867
3.60058	25.3824
3.59808	25.1886
3.59558	25.1148
3.59309	25.028
3.59061	25.0109
3.58812	25.0296
3.58564	24.8934
3.58316	24.708
3.58069	24.6322
3.57822	24.5435
3.57575	24.4608
3.57328	24.3579
3.57082	24.24
3.56836	24.1887
3.56591	24.1256
3.56346	24.0159
3.56101	23.9171
3.55857	23.8677
3.55613	23.7927
3.55369	23.6488
3.55126	23.5629
3.54883	23.4367
3.5464	23.3632
3.54397	23.3445
3.54155	23.2549
3.53914	23.2848
3.53672	23.2146
3.53431	23.0085
3.5319	23.016
3.5295	23.0428
3.5271	22.8654
3.5247	22.7207
3.52231	22.7456
3.51991	22.7575
3.51753	22.6501
3.51514	22.6267
3.51276	22.5592
3.51038	22.488
3.50801	22.4247
3.50563	22.3114
3.50327	22.2632
3.5009	22.1964
3.49854	22.1307
3.49618	21.9927
3.49382	21.9182
3.49147	21.9761
3.48912	21.9371
3.48677	21.8323
3.48443	21.7419
3.48209	21.6419
3.47975	21.5576
3.47742	21.4703
3.47509	21.3822
3.47276	21.3463
3.47044	21.2533
3.46812	21.1683
3.4658	21.1054
3.46348	21.0696
3.46117	21.0788
3.45886	21.0364
3.45656	20.9676
3.45425	20.8714
3.45195	20.7744
3.44966	20.8002
3.44736	20.7184
3.44507	20.5036
3.44279	20.4048
3.4405	20.4022
3.43822	20.3758
3.43594	20.3013
3.43367	20.2333
3.43139	20.1728
3.42912	20.1232
3.42686	20.0373
3.42459	19.9285
3.42233	19.8189
3.42007	19.7168
3.41782	19.6389
3.41557	19.626
3.41332	19.5279
3.41108	19.4376
3.40883	19.454
3.40659	19.4218
3.40435	19.3089
3.40212	19.1612
3.39989	19.1019
3.39766	19.0234
3.39544	18.9624
3.39322	18.9439
3.391	18.8313
3.38878	18.7041
3.38657	18.6455
3.38436	18.6282
3.38215	18.603
3.37994	18.4819
3.37774	18.3016
3.37554	18.2343
3.37335	18.2283
3.37115	18.0866
3.36896	18.0106
3.36678	17.9254
3.36459	17.7877
3.36241	17.7838
3.36023	17.6831
3.35805	17.5922
3.35588	17.6141
3.35371	17.5512
3.35154	17.438
3.34938	17.3536
3.34721	17.2543
3.34505	17.1587
3.3429	17.0823
3.34074	16.9863
3.33859	16.8706
3.33644	16.7971
3.3343	16.7052
3.33215	16.5896
3.33001	16.5446
3.32788	16.4831
3.32574	16.4938
3.32361	16.3605
3.32148	16.1833
3.31936	16.1568
3.31723	16.1087
3.31511	15.9862
3.31299	15.8436
3.31088	15.7775
3.30876	15.6804
3.30665	15.6143
3.30455	15.6168
3.30244	15.5487
3.30034	15.4044
3.29824	15.2571
3.29614	15.1515
3.29405	15.145
3.29196	15.1022
3.28987	14.9538
3.28778	14.7486
3.2857	14.7196
3.28362	14.7553
3.28154	14.6167
3.27946	14.4837
3.27739	14.5071
3.27532	14.5396
3.27325	14.3836
3.27119	14.1709
3.26913	13.9622
3.26707	13.918
3.26501	13.9477
3.26295	13.8338
3.2609	13.636
3.25885	13.4412
3.2568	13.3454
3.25476	13.3527
3.25272	13.3051
3.25068	13.1772
3.24864	13.0558
3.24661	13.0069
3.24458	12.9834
3.24255	12.9588
3.24052	12.8689
3.2385	12.6812
3.23648	12.5294
3.23446	12.4332
3.23244	12.3534
3.23043	12.2414
3.22841	12.1548
3.2264	12.0513
3.2244	11.9392
3.22239	11.8609
3.22039	11.873
3.21839	11.8575
3.2164	11.6214
3.2144	11.5486
3.21241	11.4872
3.21042	11.3611
3.20844	11.2753
3.20645	11.151
3.20447	11.0483
3.20249	11.0057
3.20051	10.9046
3.19854	10.8138
3.19657	10.7183
3.1946	10.5308
3.19263	10.4211
3.19067	10.4675
3.1887	10.4105
3.18674	10.2528
3.18479	10.1727
3.18283	10.0537
3.18088	9.86784
3.17893	9.89157
3.17698	9.93758
3.17504	9.80501
3.17309	9.58706
3.17115	9.50595
3.16921	9.53465
3.16728	9.41412
3.16534	9.30133
3.16341	9.23872
3.16148	9.16769
3.15956	9.11639
3.15763	8.98181
3.15571	8.86127
3.15379	8.83489
3.15187	8.75507
3.14996	8.62845
3.14805	8.55507
3.14614	8.49291
3.14423	8.46926
3.14232	8.33032
3.14042	8.20699
3.13852	8.17222
3.13662	8.13086
3.13472	7.99796
3.13283	7.88603
3.13094	7.93386
3.12905	7.85822
3.12716	7.64186
3.12528	7.5943
3.12339	7.60454
3.12151	7.51985
3.11964	7.34935
3.11776	7.2287
3.11589	7.18678
3.11401	7.19709
3.11214	7.18335
3.11028	7.06436
3.10841	7.02248
3.10655	6.95535
3.10469	6.77088
3.10283	6.63955
3.10098	6.67182
3.09912	6.71687
3.09727	6.69748
3.09542	6.65084
3.09358	6.63266
3.09173	6.49394
3.08989	6.27343
3.08805	6.15208
3.08621	6.17811
3.08437	6.14586
3.08254	6.06151
3.08071	5.97984
3.07888	5.91463
3.07705	5.87931
3.07523	5.84797
3.0734	5.91652
3.07158	5.82877
3.06977	5.70692
3.06795	5.80662
3.06613	5.73255
3.06432	5.4736
3.06251	5.33711
3.0607	5.38519
3.0589	5.35475
3.0571	5.27624
3.05529	5.22136
3.05349	5.24717
3.0517	5.21519
3.0499	5.08421
3.04811	5.02665
3.04632	5.08108
3.04453	5.07513
3.04274	4.98261
3.04096	4.96716
3.03918	4.84833
3.0374	4.78263
3.03562	4.88889
3.03384	4.80827
3.03207	4.69296
3.03029	4.59911
3.02852	4.52413
3.02676	4.49381
3.02499	4.4387
3.02323	4.38123
3.02146	4.42829
3.0197	4.52854
3.01795	4.53687
3.01619	4.49934
3.01444	4.4131
3.01269	4.3162
3.01094	4.26387
3.00919	4.22863
3.00744	4.17147
3.0057	4.16228
3.00396	4.15417
3.00222	4.1106
3.00048	3.90359
2.99875	3.79881
2.99701	3.96806
2.99528	3.97782
2.99355	3.85833
2.99183	3.88139
2.9901	3.99865
2.98838	4.13731
2.98666	4.09428
2.98494	3.94793
2.98322	3.82081
2.9815	3.77501
2.97979	3.72416
2.97808	3.84552
2.97637	3.88663
2.97466	3.83203
2.97295	3.82766
2.97125	3.89422
2.96955	3.95081
2.96785	3.89995
2.96615	3.84263
2.96446	3.80341
2.96276	3.705
2.96107	3.60189
2.95938	3.53601
2.95769	3.42267
2.95601	3.53313
2.95432	3.68639
2.95264	3.65422
2.95096	3.54571
2.94928	3.51252
2.9476	3.59015
2.94593	3.55039
2.94425	3.53062
2.94258	3.60002
2.94092	3.59451
2.93925	3.57497
2.93758	3.6995
2.93592	3.75699
2.93426	3.68567
2.9326	3.71839
2.93094	3.65972
2.92928	3.50858
2.92763	3.53425
2.92598	3.54614
2.92433	3.53549
2.92268	3.52376
2.92103	3.60721
2.91939	3.6916
2.91775	3.68937
2.9161	3.65303
2.91447	3.71844
2.91283	3.85391
2.91119	3.71779
2.90956	3.69822
2.90793	3.80725
2.9063	3.84808
2.90467	3.82012
2.90304	3.85384
2.90142	3.93137
2.89979	3.92324
2.89817	3.79333
2.89656	3.90243
2.89494	4.10401
2.89332	4.13925
2.89171	4.0504
2.8901	4.15212
2.88849	4.2687
2.88688	4.12911
2.88527	4.06622
2.88367	4.15382
2.88206	4.28506
2.88046	4.32043
2.87886	4.29586
2.87727	4.3077
2.87567	4.30744
2.87408	4.29912
2.87248	4.162
2.87089	4.13998
2.8693	4.31827
2.86772	4.43923
2.86613	4.4102
2.86455	4.39619
2.86297	4.41743
2.86139	4.3996
2.85981	4.50145
2.85823	4.49411
2.85666	4.3141
2.85508	4.22158
2.85351	4.21039
2.85194	4.19334
2.85038	4.13485
2.84881	4.14981
2.84724	4.20455
2.84568	4.13402
2.84412	4.07427
2.84256	4.18695
2.841	4.26998
2.83945	4.12135
2.83789	3.99548
2.83634	4.04557
2.83479	4.26801
2.83324	4.35685
2.83169	4.22949
2.83015	4.05444
2.82861	4.09323
2.82706	4.12467
2.82552	4.15661
2.82398	4.21694
2.82245	4.16564
2.82091	3.97317
2.81938	4.03666
2.81784	4.20075
2.81631	4.25548
2.81479	4.17538
2.81326	4.05001
2.81173	4.14266
2.81021	4.26438
2.80869	4.21345
2.80716	4.18978
2.80565	4.22806
2.80413	4.27601
2.80261	4.38228
2.8011	4.51752
2.79959	4.62994
2.79808	4.81055
2.79657	4.88102
2.79506	4.83594
2.79355	4.9416
2.79205	5.15151
2.79055	5.30144
2.78904	5.43556
2.78754	5.63122
2.78605	5.71347
2.78455	5.82124
2.78306	6.04487
2.78156	6.29349
2.78007	6.44906
2.77858	6.57533
2.77709	6.53459
2.77561	6.48621
2.77412	6.46174
2.77264	6.59679
2.77116	6.69511
2.76968	6.642
2.7682	6.65983
2.76672	6.58197
2.76524	6.40838
2.76377	6.3003
2.7623	6.21445
2.76083	6.29713
2.75936	6.3907
2.75789	6.40139
2.75642	6.51658
2.75496	6.69553
2.7535	6.87565
2.75203	7.07873
2.75057	7.24921
2.74912	7.44775
2.74766	7.68965
2.7462	7.89484
2.74475	8.12385
2.7433	8.47031
2.74185	8.85564
2.7404	9.38895
2.73895	9.84203
2.7375	10.369
2.73606	11.0779
2.73462	11.6992
2.73318	12.2859
2.73174	12.7549
2.7303	13.3107
2.72886	14.0738
2.72742	14.8369
2.72599	15.6921
2.72456	16.549
2.72313	17.2915
2.7217	18.1281
2.72027	18.9822
2.71884	19.7468
2.71742	20.3382
2.71599	20.8065
2.71457	21.4483
2.71315	22.0557
2.71173	22.4533
2.71032	22.5775
2.7089	22.6629
2.70748	22.6474
2.70607	22.4468
2.70466	22.1554
2.70325	21.9282
2.70184	22.0087
2.70043	22.3768
2.69903	23.0394
2.69762	23.9332
2.69622	25.0148
2.69482	25.9805
2.69342	26.7654
2.69202	27.3112
2.69062	27.8411
2.68923	28.4519
2.68783	28.9809
2.68644	29.3724
2.68505	29.5613
2.68366	29.9397
2.68227	30.2834
2.68089	30.4326
2.6795	30.7474
2.67812	31.0598
2.67673	31.2643
2.67535	31.3342
2.67397	31.4252
2.6726	31.5268
2.67122	31.7545
2.66984	32.0055
2.66847	32.089
2.6671	32.1864
2.66572	32.2365
2.66435	32.328
2.66299	32.4448
2.66162	32.4507
2.66025	32.4791
2.65889	32.6601
2.65753	32.8338
2.65616	33.0231
2.65481	33.2279
2.65345	33.2613
2.65209	33.4554
2.65073	33.741
2.64938	33.7751
2.64803	33.7708
2.64667	33.92
2.64532	34.179
2.64397	34.333
2.64263	34.3661
2.64128	34.439
2.63994	34.5993
2.63859	34.6979
2.63725	34.7515
2.63591	34.8114
2.63457	35.1143
2.63323	35.2718
2.6319	35.2755
2.63056	35.3167
2.62923	35.2331
2.62789	35.2518
2.62656	35.4785
2.62523	35.5538
2.6239	35.5629
2.62258	35.5351
2.62125	35.6207
2.61993	35.6113
2.6186	35.6043
2.61728	35.6874
2.61596	35.6987
2.61464	35.631
2.61332	35.6613
2.61201	35.7593
2.61069	35.9381
2.60938	35.961
2.60807	35.8888
2.60675	35.9615
2.60544	36.0479
2.60414	36.0882
2.60283	36.0952
2.60152	36.0231
2.60022	35.959
2.59891	35.8348
2.59761	35.9639
2.59631	36.2723
2.59501	36.4673
2.59371	36.4548
2.59242	36.2604
2.59112	36.1556
2.58983	36.2399
2.58853	36.3909
2.58724	36.4583
2.58595	36.6037
2.58466	36.6472
2.58338	36.515
2.58209	36.4082
2.5808	36.5163
2.57952	36.577
2.57824	36.5518
2.57695	36.5598
2.57567	36.6756
2.5744	36.8054
2.57312	36.9094
2.57184	36.885
2.57057	36.8957
2.56929	36.9673
2.56802	37.0271
2.56675	36.9525
2.56548	36.904
2.56421	37.0045
2.56294	37.1441
2.56168	37.1974
2.56041	37.1746
2.55915	37.1456
2.55789	37.2801
2.55662	37.4919
2.55536	37.5344
2.5541	37.554
2.55285	37.6403
2.55159	37.687
2.55034	37.6829
2.54908	37.7137
2.54783	37.8016
2.54658	37.7915
2.54533	37.7682
2.54408	37.9574
2.54283	38.073
2.54159	38.0915
2.54034	38.0631
2.5391	38.0537
2.53785	38.0885
2.53661	38.1644
2.53537	38.3364
2.53413	38.5168
2.53289	38.4969
2.53166	38.3964
2.53042	38.4322
2.52919	38.5375
2.52795	38.5971
2.52672	38.5284
2.52549	38.5092
2.52426	38.5241
2.52303	38.7424
2.52181	38.9397
2.52058	38.9121
2.51936	38.9007
2.51813	38.9172
2.51691	38.9518
2.51569	39.0889
2.51447	39.1806
2.51325	39.0916
2.51203	39.136
2.51082	39.1721
2.5096	39.089
2.50839	39.1554
2.50717	39.334
2.50596	39.5313
2.50475	39.5476
2.50354	39.6161
2.50233	39.6456
2.50113	39.7961
2.49992	40.0078
2.49872	39.865
2.49751	39.7991
2.49631	40.0574
2.49511	40.2383
2.49391	40.278
2.49271	40.3746
2.49151	40.5055
2.49031	40.612
2.48912	40.5948
2.48792	40.743
2.48673	41.0198
2.48554	41.1877
2.48435	41.2522
2.48316	41.3251
2.48197	41.3934
2.48078	41.579
2.4796	41.7165
2.47841	41.9421
2.47723	42.1189
2.47604	42.1908
2.47486	42.2993
2.47368	42.3293
2.4725	42.3275
2.47132	42.5349
2.47014	42.7652
2.46897	42.8374
2.46779	42.9643
2.46662	43.1064
2.46545	43.2035
2.46427	43.3529
2.4631	43.4999
2.46193	43.5801
2.46077	43.6928
2.4596	43.7191
2.45843	43.7684
2.45727	43.7501
2.4561	43.8346
2.45494	44.1399
2.45378	44.1812
2.45262	44.0593
2.45146	44.0549
2.4503	44.0491
2.44914	44.1307
2.44799	44.1983
2.44683	44.2665
2.44568	44.2006
2.44452	44.1057
2.44337	44.2752
2.44222	44.2955
2.44107	44.3004
2.43992	44.3063
2.43877	44.3071
2.43763	44.4622
2.43648	44.4742
2.43534	44.3852
2.43419	44.3985
2.43305	44.4176
2.43191	44.4176
2.43077	44.4974
2.42963	44.5232
2.42849	44.4058
2.42736	44.3658
2.42622	44.3984
2.42509	44.3859
2.42395	44.3643
2.42282	44.4615
2.42169	44.4468
2.42056	44.2661
2.41943	44.2005
2.4183	44.3909
2.41717	44.5728
2.41605	44.6132
2.41492	44.7129
2.4138	44.6596
2.41267	44.4552
2.41155	44.4085
2.41043	44.4417
2.40931	44.4849
2.40819	44.4535
2.40707	44.2284
2.40595	44.0819
2.40484	43.9214
2.40372	43.8811
2.40261	43.85
2.4015	43.7578
2.40039	43.6321
2.39928	43.4922
2.39817	43.4261
2.39706	43.1816
2.39595	43.1437
2.39484	43.0729
2.39374	42.7399
2.39263	42.5996
2.39153	42.4197
2.39043	42.0206
2.38932	41.7314
2.38822	41.5269
2.38712	41.3012
2.38603	41.0564
2.38493	40.6421
2.38383	40.3369
2.38274	40.094
2.38164	39.8309
2.38055	39.4425
2.37946	39.059
2.37836	38.8439
2.37727	38.514
2.37618	38.1918
2.3751	37.9689
2.37401	37.6812
2.37292	37.2722
2.37184	36.9898
2.37075	36.8624
2.36967	36.6308
2.36859	36.3837
2.3675	36.1859
2.36642	36.0282
2.36534	36.0503
2.36427	35.9843
2.36319	35.7883
2.36211	35.7074
2.36104	35.7926
2.35996	35.8334
2.35889	35.7759
2.35781	35.7368
2.35674	35.6654
2.35567	35.5839
2.3546	35.6665
2.35353	35.9297
2.35247	36.0328
2.3514	36.0995
2.35033	36.1722
2.34927	36.1816
2.3482	36.2904
2.34714	36.3418
2.34608	36.616
2.34502	36.8856
2.34396	37.1004
2.3429	37.3442
2.34184	37.4585
2.34078	37.6428
2.33973	37.8645
2.33867	37.9579
2.33762	38.1528
2.33656	38.5075
2.33551	38.637
2.33446	38.616
2.33341	38.7422
2.33236	39.0543
2.33131	39.2948
2.33026	39.4158
2.32922	39.6414
2.32817	39.9025
2.32712	39.9101
2.32608	39.8619
2.32504	39.9395
2.324	40.3887
2.32295	40.6566
2.32191	40.7011
2.32087	40.8536
2.31984	41.0802
2.3188	41.2511
2.31776	41.3283
2.31673	41.331
2.31569	41.5951
2.31466	41.8562
2.31362	41.836
2.31259	41.8527
2.31156	42.0378
2.31053	42.2664
2.3095	42.4088
2.30847	42.5821
2.30745	42.8433
2.30642	42.9434
2.3054	43.0224
2.30437	43.1855
2.30335	43.3033
2.30232	43.4223
2.3013	43.4897
2.30028	43.4639
2.29926	43.6838
2.29824	43.9041
2.29722	43.9028
2.29621	43.8187
2.29519	43.8406
2.29417	43.939
2.29316	43.9545
2.29215	43.9392
2.29113	43.944
2.29012	43.9085
2.28911	43.7932
2.2881	43.8225
2.28709	43.8045
2.28608	43.7747
2.28507	43.7663
2.28407	43.584
2.28306	43.3165
2.28206	43.1678
2.28105	43.163
2.28005	42.9799
2.27905	42.6946
2.27805	42.4819
2.27705	42.241
2.27605	41.8641
2.27505	41.6825
2.27405	41.4488
2.27305	41.1374
2.27206	40.7861
2.27106	40.2835
2.27007	39.9305
2.26907	39.6886
2.26808	39.3364
2.26709	38.9401
2.2661	38.6392
2.26511	38.471
2.26412	38.3085
2.26313	38.1046
2.26214	37.8747
2.26116	37.7467
2.26017	37.8043
2.25919	37.8742
2.2582	37.9592
2.25722	38.3311
2.25624	38.5957
2.25526	38.7426
2.25428	39.1158
2.2533	39.6105
2.25232	40.059
2.25134	40.6355
2.25036	41.1884
2.24939	41.6424
2.24841	42.2373
2.24744	42.7548
2.24646	43.374
2.24549	43.9988
2.24452	44.5689
2.24355	45.2267
2.24257	45.9368
2.24161	46.5018
2.24064	46.9369
2.23967	47.4694
2.2387	47.9535
2.23774	48.3679
2.23677	48.7431
2.23581	49.072
2.23484	49.4146
2.23388	49.8056
2.23292	50.0882
2.23196	50.2502
2.231	50.7117
2.23004	51.1478
2.22908	51.3316
2.22812	51.5008
2.22716	51.7887
2.22621	51.9438
2.22525	52.1524
2.2243	52.3594
2.22334	52.4964
2.22239	52.6511
2.22144	52.8014
2.22049	52.9345
2.21953	53.1181
2.21859	53.2189
2.21764	53.3219
2.21669	53.4366
2.21574	53.49
2.21479	53.6126
2.21385	53.7501
2.2129	53.8025
2.21196	53.9122
2.21102	53.9343
2.21007	53.8228
2.20913	53.9357
2.20819	54.2804
2.20725	54.3048
2.20631	54.2368
2.20537	54.5234
2.20444	54.7422
2.2035	54.7618
2.20256	54.6955
2.20163	54.6671
2.20069	54.7045
2.19976	54.925
2.19883	55.0301
2.19789	54.9653
2.19696	55.0439
2.19603	55.138
2.1951	55.241
2.19417	55.23
2.19325	55.2419
2.19232	55.3573
2.19139	55.3853
2.19047	55.4968
2.18954	55.5283
2.18862	55.493
2.18769	55.5326
2.18677	55.4814
2.18585	55.4536
2.18493	55.4704
2.18401	55.5803
2.18309	55.7201
2.18217	55.765
2.18125	55.6919
2.18033	55.7297
2.17942	55.6855
2.1785	55.6114
2.17759	55.5972
2.17667	55.6891
2.17576	55.8497
2.17485	55.8097
2.17393	55.7956
2.17302	55.8134
2.17211	55.8223
2.1712	55.9321
2.17029	55.953
2.16939	55.8556
2.16848	55.8283
2.16757	55.8562
2.16667	55.9017
2.16576	55.9802
2.16486	56.1141
2.16395	56.0986
2.16305	55.9499
2.16215	55.9597
2.16125	56.0535
2.16035	56.0684
2.15945	56.1001
2.15855	56.0409
2.15765	55.8528
2.15675	55.9676
2.15586	56.1047
2.15496	56.1077
2.15406	56.0983
2.15317	56.0133
2.15228	56.0099
2.15138	56.0831
2.15049	56.0962
2.1496	56.0143
2.14871	56.108
2.14782	56.1702
2.14693	56.126
2.14604	56.0837
2.14515	56.0434
2.14427	55.9921
2.14338	56.0148
2.14249	56.0643
2.14161	56.0083
2.14072	55.8461
2.13984	55.916
2.13896	56.0901
2.13808	56.146
2.13719	56.0548
2.13631	55.8723
2.13543	55.9393
2.13455	55.8853
2.13368	55.7543
2.1328	55.7911
2.13192	55.905
2.13105	55.9217
2.13017	55.7773
2.1293	55.7198
2.12842	55.8795
2.12755	55.9117
2.12668	55.9924
2.1258	55.8937
2.12493	55.7153
2.12406	55.8708
2.12319	56.013
2.12232	55.8161
2.12145	55.8759
2.12059	55.9161
2.11972	55.9948
2.11885	56.0977
2.11799	56.1453
2.11712	56.2336
2.11626	56.273
2.1154	56.237
2.11453	56.164
2.11367	55.9266
2.11281	55.9109
2.11195	56.207
2.11109	56.449
2.11023	56.3836
2.10937	56.3008
2.10851	56.3632
2.10766	56.2474
2.1068	56.2175
2.10594	56.1895
2.10509	56.169
2.10423	56.3587
2.10338	56.3724
2.10253	56.2276
2.10168	56.1654
2.10082	56.1414
2.09997	56.0472
2.09912	56.036
2.09827	56.0374
2.09742	56.1306
2.09658	55.9627
2.09573	55.792
2.09488	55.9674
2.09404	55.9692
2.09319	55.7281
2.09235	55.8765
2.0915	56.0873
2.09066	56.0163
2.08982	55.9268
2.08897	55.9103
2.08813	55.7377
2.08729	55.7123
2.08645	55.8471
2.08561	55.7392
2.08477	55.4991
2.08394	55.4472
2.0831	55.427
2.08226	55.4136
2.08143	55.3326
2.08059	55.3516
2.07976	55.3281
2.07892	55.3436
2.07809	55.448
2.07726	55.2781
2.07643	55.1454
2.07559	55.2697
2.07476	55.3144
2.07393	55.1284
2.0731	54.9911
2.07228	55.0304
2.07145	55.1599
2.07062	55.1358
2.06979	54.8724
2.06897	54.3033
2.06814	54.3044
2.06732	54.749
2.06649	54.8128
2.06567	54.6957
2.06485	54.6384
2.06403	54.652
2.0632	54.5359
2.06238	54.3495
2.06156	54.2634
2.06074	54.5014
2.05993	54.4679
2.05911	54.0617
2.05829	54.0394
2.05747	54.055
2.05666	53.8683
2.05584	53.6915
2.05503	53.765
2.05421	53.7098
2.0534	53.4468
2.05259	53.6394
2.05177	53.83
2.05096	53.5591
2.05015	53.1859
2.04934	53.2534
2.04853	53.4149
2.04772	53.346
2.04691	53.1805
2.04611	52.9876
2.0453	53.0329
2.04449	52.9425
2.04369	52.6828
2.04288	52.5446
2.04208	52.4609
2.04127	52.229
2.04047	52.1321
2.03967	52.1271
2.03886	52.1926
2.03806	52.3113
2.03726	52.2314
2.03646	52.067
2.03566	51.8374
2.03486	51.7154
2.03407	51.5809
2.03327	51.4311
2.03247	51.4518
2.03167	51.4985
2.03088	51.3177
2.03008	50.996
2.02929	50.8857
2.0285	50.912
2.0277	50.945
2.02691	50.8455
2.02612	50.6926
2.02533	50.7248
2.02453	50.7845
2.02374	50.5765
2.02295	50.2633
2.02217	50.2751
2.02138	50.4239
2.02059	50.2729
2.0198	49.9693
2.01902	49.9166
2.01823	49.943
2.01744	49.7796
2.01666	49.701
2.01588	49.844
2.01509	49.8846
2.01431	49.6732
2.01353	49.5267
2.01275	49.5229
2.01196	49.5132
2.01118	49.5086
2.0104	49.4096
2.00963	49.3432
2.00885	49.4498
2.00807	49.5181
2.00729	49.4871
2.00651	49.4547
2.00574	49.4682
2.00496	49.4637
2.00419	49.3331
2.00341	49.2348
2.00264	49.2752
2.00187	49.2731
2.00109	49.2038
2.00032	49.3402
