Name: Quartz Conglomerate
Type: Rock
Class: Sedimentary
Subclass:  Conglomerate 
Particle Size: Solid surface
Sample No.: Ward48.txt
Owner: JPL
Wavelength range:  VNIR SWIR IR
Origin: Ward's Collection of American Rocks.  Sample locality - Nanticoke, Luzerne County, Pennsylvania.
Collected by:  Ward's Natural Science
Description: The gray hand specimen consists of subangular to rounde
pebbles of milky quartz of varying size with coarser sand grains filling
the interstices between the large pebbles.  The cement is silica.
Geologic age - Pennsylvanian.


Measurement: Hemispherical reflectance
First Column: X
Second Column: Y
X Units: Wavelength (micrometers)
Y Units: Reflectance (percent)
First X Value: 2.500
Last X Value: 0.400
Number of X Values: 2101
Additional information: None

2.500  21.891695
2.499  21.570430
2.498  21.932028
2.497  21.982817
2.496  21.773439
2.495  22.010240
2.494  22.091974
2.493  21.783729
2.492  22.156468
2.491  21.801918
2.490  22.212875
2.489  22.035900
2.488  22.175863
2.487  22.010323
2.486  22.187541
2.485  22.107921
2.484  22.250872
2.483  22.313495
2.482  22.441150
2.481  22.221417
2.480  22.429230
2.479  22.394708
2.478  22.497364
2.477  22.654613
2.476  22.790497
2.475  22.497536
2.474  22.827972
2.473  22.715328
2.472  22.892639
2.471  22.683397
2.470  22.903219
2.469  22.837337
2.468  23.144265
2.467  23.004140
2.466  23.190600
2.465  23.095531
2.464  23.386389
2.463  23.163734
2.462  23.348002
2.461  23.277283
2.460  23.494491
2.459  23.356116
2.458  23.537658
2.457  23.419789
2.456  23.550254
2.455  23.529061
2.454  23.581539
2.453  23.569022
2.452  23.669425
2.451  23.665218
2.450  23.801174
2.449  23.680607
2.448  23.875418
2.447  23.723367
2.446  23.854685
2.445  23.838489
2.444  23.844940
2.443  23.888169
2.442  23.914852
2.441  23.846109
2.440  24.044896
2.439  24.021490
2.438  24.106077
2.437  24.155855
2.436  24.240539
2.435  24.161993
2.434  24.209409
2.433  24.292036
2.432  24.541844
2.431  24.390648
2.430  24.623844
2.429  24.567443
2.428  24.671198
2.427  24.609810
2.426  24.790176
2.425  24.935369
2.424  25.102134
2.423  25.009409
2.422  25.130801
2.421  25.203179
2.420  25.292418
2.419  25.318359
2.418  25.416959
2.417  25.400575
2.416  25.512313
2.415  25.547268
2.414  25.643320
2.413  25.635731
2.412  25.676476
2.411  25.749253
2.410  25.862828
2.409  25.876461
2.408  25.924080
2.407  25.861722
2.406  25.911815
2.405  25.985131
2.404  26.047830
2.403  26.030359
2.402  26.080938
2.401  26.119941
2.400  26.221493
2.399  26.120097
2.398  26.166400
2.397  26.124624
2.396  26.153202
2.395  26.150664
2.394  26.114686
2.393  26.034026
2.392  26.164211
2.391  26.096140
2.390  26.044563
2.389  26.002903
2.388  25.980373
2.387  25.912956
2.386  26.035005
2.385  25.964242
2.384  25.972103
2.383  25.976146
2.382  26.024223
2.381  25.937836
2.380  25.977038
2.379  26.033726
2.378  26.043931
2.377  26.010016
2.376  26.093186
2.375  26.166228
2.374  26.229200
2.373  26.303014
2.372  26.340983
2.371  26.390450
2.370  26.459644
2.369  26.545736
2.368  26.678318
2.367  26.706432
2.366  26.792047
2.365  26.877071
2.364  26.945046
2.363  26.993852
2.362  26.985321
2.361  27.109218
2.360  27.230841
2.359  27.233098
2.358  27.225659
2.357  27.225422
2.356  27.278269
2.355  27.297289
2.354  27.338163
2.353  27.386789
2.352  27.409223
2.351  27.392724
2.350  27.349388
2.349  27.440830
2.348  27.540466
2.347  27.608154
2.346  27.575137
2.345  27.621844
2.344  27.679879
2.343  27.742038
2.342  27.817313
2.341  27.950793
2.340  28.020515
2.339  28.076848
2.338  28.150949
2.337  28.219761
2.336  28.297123
2.335  28.432252
2.334  28.438818
2.333  28.455778
2.332  28.559413
2.331  28.647022
2.330  28.674556
2.329  28.798125
2.328  28.799860
2.327  28.835964
2.326  28.883432
2.325  28.942079
2.324  28.936553
2.323  28.978278
2.322  28.994683
2.321  29.060864
2.320  29.129378
2.319  29.150705
2.318  29.125142
2.317  29.135822
2.316  29.233822
2.315  29.335719
2.314  29.269812
2.313  29.346361
2.312  29.323760
2.311  29.318210
2.310  29.315421
2.309  29.442195
2.308  29.483463
2.307  29.481416
2.306  29.408502
2.305  29.469752
2.304  29.468051
2.303  29.583842
2.302  29.547719
2.301  29.609003
2.300  29.651286
2.299  29.769680
2.298  29.727647
2.297  29.884642
2.296  29.827823
2.295  29.881265
2.294  30.012465
2.293  30.182821
2.292  30.231288
2.291  30.320078
2.290  30.327670
2.289  30.554114
2.288  30.577206
2.287  30.725986
2.286  30.814872
2.285  31.007451
2.284  31.011798
2.283  31.222056
2.282  31.262064
2.281  31.394086
2.280  31.458370
2.279  31.640562
2.278  31.672987
2.277  31.766483
2.276  31.851586
2.275  31.968745
2.274  32.025494
2.273  32.073607
2.272  32.117461
2.271  32.196563
2.270  32.193769
2.269  32.285281
2.268  32.324119
2.267  32.394819
2.266  32.329719
2.265  32.375080
2.264  32.294347
2.263  32.400354
2.262  32.323307
2.261  32.371554
2.260  32.339811
2.259  32.384400
2.258  32.386957
2.257  32.474273
2.256  32.352267
2.255  32.439288
2.254  32.361367
2.253  32.556193
2.252  32.575692
2.251  32.618394
2.250  32.581852
2.249  32.827373
2.248  32.674141
2.247  32.888580
2.246  32.864263
2.245  33.086200
2.244  33.027220
2.243  33.190104
2.242  33.203768
2.241  33.312714
2.240  33.225887
2.239  33.307274
2.238  33.318558
2.237  33.370305
2.236  33.391560
2.235  33.375395
2.234  33.301626
2.233  33.393887
2.232  33.260229
2.231  33.267506
2.230  33.072073
2.229  33.038472
2.228  32.881920
2.227  32.739450
2.226  32.594996
2.225  32.414776
2.224  32.156446
2.223  32.066623
2.222  31.714117
2.221  31.580445
2.220  31.224693
2.219  30.986030
2.218  30.462984
2.217  30.327356
2.216  29.905936
2.215  29.592668
2.214  29.184192
2.213  28.971592
2.212  28.568270
2.211  28.139909
2.210  27.941855
2.209  27.632113
2.208  27.351802
2.207  27.193551
2.206  26.991258
2.205  27.013611
2.204  26.964197
2.203  27.075754
2.202  27.158260
2.201  27.487559
2.200  27.632204
2.199  27.991725
2.198  28.141923
2.197  28.473132
2.196  28.558005
2.195  28.880655
2.194  28.870732
2.193  29.084000
2.192  28.969593
2.191  29.015301
2.190  28.842737
2.189  28.839293
2.188  28.681992
2.187  28.557367
2.186  28.354299
2.185  28.376549
2.184  28.072259
2.183  28.026388
2.182  27.916889
2.181  27.861691
2.180  27.751901
2.179  27.728350
2.178  27.716182
2.177  27.815362
2.176  27.696955
2.175  27.908105
2.174  27.896131
2.173  28.071614
2.172  28.154897
2.171  28.344655
2.170  28.407216
2.169  28.714255
2.168  28.862958
2.167  29.068406
2.166  29.247523
2.165  29.557487
2.164  29.748389
2.163  30.041412
2.162  30.257087
2.161  30.550523
2.160  30.809035
2.159  31.130049
2.158  31.309103
2.157  31.620487
2.156  31.791283
2.155  32.080773
2.154  32.254793
2.153  32.513191
2.152  32.666808
2.151  32.801891
2.150  32.915932
2.149  33.128092
2.148  33.141352
2.147  33.273016
2.146  33.352957
2.145  33.444037
2.144  33.539850
2.143  33.656257
2.142  33.718635
2.141  33.829889
2.140  33.897299
2.139  34.055437
2.138  34.183182
2.137  34.341394
2.136  34.386897
2.135  34.556100
2.134  34.569541
2.133  34.688670
2.132  34.784936
2.131  34.924904
2.130  34.992203
2.129  35.097512
2.128  35.105184
2.127  35.226822
2.126  35.317910
2.125  35.325130
2.124  35.272339
2.123  35.420854
2.122  35.371685
2.121  35.352177
2.120  35.323523
2.119  35.322441
2.118  35.208459
2.117  35.183966
2.116  35.115372
2.115  35.101599
2.114  35.033881
2.113  35.055915
2.112  34.913155
2.111  34.938186
2.110  34.975065
2.109  34.999899
2.108  34.983931
2.107  35.036408
2.106  35.085228
2.105  35.147137
2.104  35.136083
2.103  35.210741
2.102  35.237448
2.101  35.236549
2.100  35.259687
2.099  35.297927
2.098  35.262469
2.097  35.335591
2.096  35.302187
2.095  35.316904
2.094  35.348195
2.093  35.368619
2.092  35.417175
2.091  35.429208
2.090  35.395815
2.089  35.410598
2.088  35.411807
2.087  35.469066
2.086  35.479426
2.085  35.548595
2.084  35.586964
2.083  35.580717
2.082  35.618555
2.081  35.650221
2.080  35.630742
2.079  35.644471
2.078  35.651438
2.077  35.659996
2.076  35.653184
2.075  35.682948
2.074  35.737133
2.073  35.778239
2.072  35.761223
2.071  35.751281
2.070  35.732358
2.069  35.704301
2.068  35.706773
2.067  35.735597
2.066  35.769703
2.065  35.768703
2.064  35.756934
2.063  35.728366
2.062  35.777675
2.061  35.756884
2.060  35.745866
2.059  35.687802
2.058  35.625798
2.057  35.679431
2.056  35.661167
2.055  35.585809
2.054  35.617914
2.053  35.658335
2.052  35.675456
2.051  35.663760
2.050  35.677498
2.049  35.637668
2.048  35.680028
2.047  35.648108
2.046  35.638614
2.045  35.596502
2.044  35.626516
2.043  35.616781
2.042  35.623234
2.041  35.575119
2.040  35.555982
2.039  35.483055
2.038  35.492079
2.037  35.478549
2.036  35.454801
2.035  35.378246
2.034  35.444671
2.033  35.385604
2.032  35.303684
2.031  35.241949
2.030  35.273004
2.029  35.208453
2.028  35.158304
2.027  35.078002
2.026  35.061690
2.025  35.028201
2.024  35.001790
2.023  34.948458
2.022  34.879741
2.021  34.857281
2.020  34.804387
2.019  34.695732
2.018  34.705162
2.017  34.633197
2.016  34.576976
2.015  34.510628
2.014  34.496876
2.013  34.394015
2.012  34.402685
2.011  34.372030
2.010  34.273523
2.009  34.245478
2.008  34.250657
2.007  34.129404
2.006  34.149176
2.005  34.099362
2.004  34.030060
2.003  33.914689
2.002  33.900881
2.001  33.801141
2.000  33.841709
1.999  33.655047
1.998  33.607423
1.997  33.489092
1.996  33.532007
1.995  33.434416
1.994  33.353743
1.993  33.234522
1.992  33.207933
1.991  33.117579
1.990  33.175253
1.989  33.059785
1.988  33.045067
1.987  32.894236
1.986  32.955426
1.985  32.783556
1.984  32.772377
1.983  32.666061
1.982  32.661948
1.981  32.536989
1.980  32.405500
1.979  32.360896
1.978  32.327376
1.977  32.240208
1.976  32.197518
1.975  32.087580
1.974  32.078832
1.973  31.896071
1.972  31.924441
1.971  31.783612
1.970  31.876069
1.969  31.738569
1.968  31.712557
1.967  31.562821
1.966  31.700914
1.965  31.485346
1.964  31.440108
1.963  31.355340
1.962  31.393854
1.961  31.318415
1.960  31.227988
1.959  31.146728
1.958  31.179681
1.957  31.001268
1.956  31.049258
1.955  30.873680
1.954  30.924210
1.953  30.918823
1.952  30.800398
1.951  30.717518
1.950  30.744774
1.949  30.672271
1.948  30.745471
1.947  30.669237
1.946  30.626657
1.945  30.436587
1.944  30.554615
1.943  30.418984
1.942  30.590189
1.941  30.358174
1.940  30.395793
1.939  30.408632
1.938  30.412567
1.937  30.335481
1.936  30.391496
1.935  30.205441
1.934  30.359732
1.933  30.210780
1.932  30.334784
1.931  30.169607
1.930  30.225300
1.929  30.070110
1.928  30.220588
1.927  30.184221
1.926  30.021278
1.925  30.178599
1.924  30.160598
1.923  30.087995
1.922  30.177916
1.921  30.001949
1.920  30.170231
1.919  30.087564
1.918  30.099407
1.917  30.031415
1.916  30.229368
1.915  30.125857
1.914  30.289855
1.913  30.217319
1.912  30.378831
1.911  30.295520
1.910  30.584853
1.909  30.541682
1.908  30.753404
1.907  30.874720
1.906  31.087638
1.905  31.247718
1.904  31.554177
1.903  31.703836
1.902  32.099107
1.901  32.243647
1.900  32.669272
1.899  32.967905
1.898  33.394111
1.897  33.768324
1.896  34.227929
1.895  34.522021
1.894  35.068847
1.893  35.411512
1.892  35.858727
1.891  36.280092
1.890  36.719374
1.889  37.016808
1.888  37.502929
1.887  37.795733
1.886  38.303394
1.885  38.562137
1.884  38.880036
1.883  39.192147
1.882  39.529517
1.881  39.763224
1.880  40.094172
1.879  40.399150
1.878  40.741583
1.877  40.851774
1.876  41.236128
1.875  41.351530
1.874  41.585107
1.873  41.742336
1.872  41.930480
1.871  42.052792
1.870  42.188362
1.869  42.227128
1.868  42.392763
1.867  42.421640
1.866  42.644026
1.865  42.735782
1.864  42.941802
1.863  42.938173
1.862  43.109700
1.861  43.133714
1.860  43.310304
1.859  43.319309
1.858  43.354146
1.857  43.454950
1.856  43.430379
1.855  43.408287
1.854  43.519728
1.853  43.521893
1.852  43.587259
1.851  43.596174
1.850  43.646066
1.849  43.518857
1.848  43.520952
1.847  43.463196
1.846  43.527409
1.845  43.461704
1.844  43.437081
1.843  43.504264
1.842  43.564549
1.841  43.483891
1.840  43.517657
1.839  43.406060
1.838  43.453677
1.837  43.374778
1.836  43.387577
1.835  43.406197
1.834  43.389039
1.833  43.394031
1.832  43.444066
1.831  43.396761
1.830  43.409475
1.829  43.405650
1.828  43.423028
1.827  43.377481
1.826  43.344700
1.825  43.339677
1.824  43.474878
1.823  43.435967
1.822  43.453941
1.821  43.465591
1.820  43.457351
1.819  43.490615
1.818  43.567984
1.817  43.566119
1.816  43.611788
1.815  43.608071
1.814  43.585108
1.813  43.544145
1.812  43.615816
1.811  43.565234
1.810  43.551853
1.809  43.501350
1.808  43.472696
1.807  43.483097
1.806  43.548173
1.805  43.494749
1.804  43.457928
1.803  43.523524
1.802  43.510829
1.801  43.508065
1.800  43.513152
1.799  43.502664
1.798  43.577480
1.797  43.625012
1.796  43.643773
1.795  43.619206
1.794  43.687642
1.793  43.747658
1.792  43.773077
1.791  43.816259
1.790  43.857746
1.789  43.849457
1.788  43.908220
1.787  43.944482
1.786  43.975666
1.785  43.969104
1.784  44.019123
1.783  44.078006
1.782  44.100703
1.781  44.133307
1.780  44.102155
1.779  44.149061
1.778  44.172097
1.777  44.203965
1.776  44.265316
1.775  44.309279
1.774  44.293674
1.773  44.333189
1.772  44.381697
1.771  44.442597
1.770  44.447792
1.769  44.425010
1.768  44.467712
1.767  44.506455
1.766  44.525609
1.765  44.551707
1.764  44.523536
1.763  44.623156
1.762  44.700451
1.761  44.663459
1.760  44.632218
1.759  44.708143
1.758  44.756506
1.757  44.750145
1.756  44.710282
1.755  44.804196
1.754  44.806560
1.753  44.826804
1.752  44.866786
1.751  44.886287
1.750  44.879084
1.749  44.901621
1.748  44.899963
1.747  44.916136
1.746  44.918791
1.745  44.992872
1.744  44.939977
1.743  44.945375
1.742  45.022873
1.741  45.017914
1.740  45.060798
1.739  45.113579
1.738  45.086650
1.737  45.123730
1.736  45.105265
1.735  45.179839
1.734  45.226472
1.733  45.230326
1.732  45.182167
1.731  45.222176
1.730  45.204560
1.729  45.317468
1.728  45.271792
1.727  45.326153
1.726  45.283436
1.725  45.338791
1.724  45.305686
1.723  45.360500
1.722  45.363485
1.721  45.413872
1.720  45.358702
1.719  45.456229
1.718  45.372651
1.717  45.417597
1.716  45.411737
1.715  45.434966
1.714  45.428216
1.713  45.451649
1.712  45.407071
1.711  45.449370
1.710  45.486569
1.709  45.448892
1.708  45.389837
1.707  45.452705
1.706  45.414684
1.705  45.476352
1.704  45.470658
1.703  45.468564
1.702  45.489194
1.701  45.491306
1.700  45.477337
1.699  45.526558
1.698  45.439926
1.697  45.489390
1.696  45.490104
1.695  45.476897
1.694  45.546406
1.693  45.552952
1.692  45.436927
1.691  45.538873
1.690  45.505774
1.689  45.552902
1.688  45.520993
1.687  45.490744
1.686  45.520688
1.685  45.558803
1.684  45.500811
1.683  45.476317
1.682  45.526341
1.681  45.544886
1.680  45.499650
1.679  45.522417
1.678  45.559066
1.677  45.464276
1.676  45.516979
1.675  45.573869
1.674  45.590521
1.673  45.528765
1.672  45.514636
1.671  45.528528
1.670  45.419842
1.669  45.558947
1.668  45.416411
1.667  45.583061
1.666  45.454482
1.665  45.560192
1.664  45.495358
1.663  45.498593
1.662  45.509451
1.661  45.552180
1.660  45.514769
1.659  45.485911
1.658  45.440612
1.657  45.517109
1.656  45.452571
1.655  45.545568
1.654  45.495005
1.653  45.498888
1.652  45.517657
1.651  45.557541
1.650  45.336972
1.649  45.522662
1.648  45.431996
1.647  45.500665
1.646  45.478619
1.645  45.407020
1.644  45.512159
1.643  45.571277
1.642  45.428211
1.641  45.398637
1.640  45.465686
1.639  45.496618
1.638  45.367487
1.637  45.447523
1.636  45.364276
1.635  45.526304
1.634  45.430512
1.633  45.554167
1.632  45.458358
1.631  45.510930
1.630  45.368999
1.629  45.492386
1.628  45.414134
1.627  45.473205
1.626  45.384241
1.625  45.402458
1.624  45.360851
1.623  45.475621
1.622  45.373733
1.621  45.428906
1.620  45.357308
1.619  45.421765
1.618  45.369529
1.617  45.375833
1.616  45.294048
1.615  45.421217
1.614  45.357682
1.613  45.412644
1.612  45.275109
1.611  45.344173
1.610  45.326519
1.609  45.273186
1.608  45.272714
1.607  45.332477
1.606  45.320248
1.605  45.327967
1.604  45.254265
1.603  45.305889
1.602  45.253758
1.601  45.308084
1.600  45.314585
1.599  45.188992
1.598  45.174403
1.597  45.243085
1.596  45.164238
1.595  45.242458
1.594  45.124299
1.593  45.187336
1.592  45.111885
1.591  45.090875
1.590  45.086773
1.589  45.138596
1.588  45.106606
1.587  45.006457
1.586  44.961248
1.585  45.112683
1.584  44.942022
1.583  45.010782
1.582  44.976507
1.581  44.907629
1.580  44.911383
1.579  44.951571
1.578  44.946052
1.577  44.979333
1.576  44.918016
1.575  44.870804
1.574  44.837152
1.573  44.809468
1.572  44.759307
1.571  44.806929
1.570  44.706136
1.569  44.743141
1.568  44.672679
1.567  44.721703
1.566  44.728238
1.565  44.662157
1.564  44.613145
1.563  44.627402
1.562  44.571422
1.561  44.580306
1.560  44.590016
1.559  44.540188
1.558  44.416361
1.557  44.432177
1.556  44.468290
1.555  44.527514
1.554  44.423295
1.553  44.428491
1.552  44.380111
1.551  44.356838
1.550  44.335218
1.549  44.290379
1.548  44.264625
1.547  44.285324
1.546  44.231141
1.545  44.217802
1.544  44.165532
1.543  44.165377
1.542  44.114262
1.541  44.053390
1.540  44.066967
1.539  44.086170
1.538  44.041939
1.537  44.039056
1.536  43.988268
1.535  43.952857
1.534  43.897419
1.533  43.897275
1.532  43.896700
1.531  43.861002
1.530  43.796673
1.529  43.786113
1.528  43.722884
1.527  43.726684
1.526  43.664019
1.525  43.615074
1.524  43.568644
1.523  43.607168
1.522  43.543366
1.521  43.542177
1.520  43.504044
1.519  43.487728
1.518  43.417067
1.517  43.409860
1.516  43.354379
1.515  43.316680
1.514  43.282209
1.513  43.209268
1.512  43.201882
1.511  43.221768
1.510  43.106478
1.509  43.020197
1.508  42.995377
1.507  42.950139
1.506  42.932397
1.505  42.931647
1.504  42.881811
1.503  42.854763
1.502  42.791872
1.501  42.737902
1.500  42.722510
1.499  42.710444
1.498  42.650512
1.497  42.573696
1.496  42.448294
1.495  42.410112
1.494  42.453865
1.493  42.413147
1.492  42.366937
1.491  42.282071
1.490  42.244089
1.489  42.232437
1.488  42.219638
1.487  42.159549
1.486  42.110202
1.485  42.052361
1.484  42.002100
1.483  41.924453
1.482  41.932885
1.481  41.852542
1.480  41.817253
1.479  41.726097
1.478  41.670142
1.477  41.666546
1.476  41.625338
1.475  41.574747
1.474  41.540082
1.473  41.448311
1.472  41.377507
1.471  41.340804
1.470  41.345466
1.469  41.251135
1.468  41.285234
1.467  41.260499
1.466  41.178135
1.465  41.159593
1.464  41.142512
1.463  41.118774
1.462  41.100651
1.461  41.111020
1.460  41.108484
1.459  41.036002
1.458  41.087906
1.457  41.061856
1.456  40.991550
1.455  40.929122
1.454  40.989931
1.453  40.940344
1.452  40.807169
1.451  40.771722
1.450  40.801091
1.449  40.748305
1.448  40.766214
1.447  40.705219
1.446  40.697484
1.445  40.599869
1.444  40.615573
1.443  40.638666
1.442  40.602266
1.441  40.526978
1.440  40.565413
1.439  40.500919
1.438  40.533439
1.437  40.371519
1.436  40.347333
1.435  40.271788
1.434  40.189210
1.433  40.028794
1.432  40.007575
1.431  39.857249
1.430  39.772670
1.429  39.593487
1.428  39.365338
1.427  39.145671
1.426  38.935899
1.425  38.550989
1.424  38.074062
1.423  37.520891
1.422  36.986075
1.421  36.096746
1.420  35.368629
1.419  34.441782
1.418  33.692156
1.417  32.683736
1.416  32.077454
1.415  31.688072
1.414  31.993130
1.413  32.785840
1.412  33.745612
1.411  34.696714
1.410  35.563359
1.409  36.025724
1.408  36.416898
1.407  36.711979
1.406  37.161196
1.405  37.365807
1.404  37.698263
1.403  37.867725
1.402  38.076368
1.401  38.354745
1.400  38.578208
1.399  38.766454
1.398  39.149777
1.397  39.260098
1.396  39.484043
1.395  39.385045
1.394  39.573435
1.393  39.567486
1.392  39.663221
1.391  39.562447
1.390  39.386034
1.389  39.149710
1.388  38.854990
1.387  38.501553
1.386  38.135929
1.385  37.512934
1.384  37.215559
1.383  36.808042
1.382  36.693631
1.381  36.669112
1.380  37.037324
1.379  37.402100
1.378  37.876771
1.377  38.506319
1.376  39.095202
1.375  39.547004
1.374  40.075959
1.373  40.370510
1.372  40.852142
1.371  41.080431
1.370  41.363318
1.369  41.505743
1.368  41.792190
1.367  41.825307
1.366  42.020545
1.365  41.870376
1.364  41.988145
1.363  41.829290
1.362  41.698835
1.361  41.597374
1.360  41.669320
1.359  41.625407
1.358  41.877489
1.357  42.001691
1.356  42.327346
1.355  42.226635
1.354  42.651537
1.353  42.594413
1.352  42.755582
1.351  42.685637
1.350  42.961354
1.349  43.006637
1.348  43.090911
1.347  43.108602
1.346  43.104726
1.345  43.122145
1.344  43.340735
1.343  43.161467
1.342  43.284408
1.341  43.277217
1.340  43.286511
1.339  43.260253
1.338  43.287349
1.337  43.325601
1.336  43.378805
1.335  43.257445
1.334  43.345916
1.333  43.238463
1.332  43.310444
1.331  43.288053
1.330  43.337581
1.329  43.297142
1.328  43.272074
1.327  43.228990
1.326  43.280266
1.325  43.354715
1.324  43.304329
1.323  43.380838
1.322  43.290894
1.321  43.280806
1.320  43.322074
1.319  43.298513
1.318  43.340410
1.317  43.353197
1.316  43.322900
1.315  43.289506
1.314  43.309052
1.313  43.214332
1.312  43.317727
1.311  43.251343
1.310  43.210031
1.309  43.133888
1.308  43.146578
1.307  43.009579
1.306  43.168804
1.305  43.178021
1.304  43.133922
1.303  43.199372
1.302  43.212725
1.301  43.189236
1.300  43.247287
1.299  43.284376
1.298  43.317773
1.297  43.299450
1.296  43.356073
1.295  43.410809
1.294  43.465315
1.293  43.356860
1.292  43.451315
1.291  43.348269
1.290  43.487427
1.289  43.438463
1.288  43.459314
1.287  43.447782
1.286  43.459897
1.285  43.435864
1.284  43.484447
1.283  43.352336
1.282  43.411670
1.281  43.409691
1.280  43.527261
1.279  43.451954
1.278  43.410399
1.277  43.425516
1.276  43.475837
1.275  43.368490
1.274  43.398961
1.273  43.391000
1.272  43.394457
1.271  43.342838
1.270  43.327880
1.269  43.231104
1.268  43.305815
1.267  43.290225
1.266  43.271398
1.265  43.275871
1.264  43.255354
1.263  43.184614
1.262  43.153133
1.261  43.071151
1.260  43.021075
1.259  43.024825
1.258  42.990320
1.257  42.971684
1.256  43.015177
1.255  42.955454
1.254  42.980372
1.253  42.904668
1.252  42.876628
1.251  42.809418
1.250  42.836529
1.249  42.791790
1.248  42.767810
1.247  42.718051
1.246  42.669868
1.245  42.595941
1.244  42.603791
1.243  42.532711
1.242  42.581351
1.241  42.591800
1.240  42.554465
1.239  42.567056
1.238  42.577323
1.237  42.557802
1.236  42.548404
1.235  42.503190
1.234  42.478900
1.233  42.470189
1.232  42.451350
1.231  42.414064
1.230  42.444793
1.229  42.444064
1.228  42.447860
1.227  42.446765
1.226  42.370424
1.225  42.337277
1.224  42.339153
1.223  42.288512
1.222  42.265059
1.221  42.267128
1.220  42.295947
1.219  42.257160
1.218  42.174811
1.217  42.178552
1.216  42.160059
1.215  42.142370
1.214  42.136855
1.213  42.086301
1.212  42.060505
1.211  41.987163
1.210  41.905628
1.209  41.966808
1.208  41.969252
1.207  41.944486
1.206  41.891638
1.205  41.858194
1.204  41.862527
1.203  41.842012
1.202  41.806962
1.201  41.735492
1.200  41.646914
1.199  41.635785
1.198  41.642686
1.197  41.638851
1.196  41.609646
1.195  41.605845
1.194  41.532233
1.193  41.524555
1.192  41.462932
1.191  41.413405
1.190  41.392317
1.189  41.398724
1.188  41.276303
1.187  41.283456
1.186  41.346423
1.185  41.383234
1.184  41.259610
1.183  41.210979
1.182  41.166162
1.181  41.136127
1.180  41.075261
1.179  41.072232
1.178  41.001717
1.177  40.998845
1.176  40.938924
1.175  40.950634
1.174  40.944127
1.173  40.939600
1.172  40.830846
1.171  40.863532
1.170  40.791295
1.169  40.853231
1.168  40.756541
1.167  40.668178
1.166  40.614379
1.165  40.650154
1.164  40.566055
1.163  40.621005
1.162  40.520996
1.161  40.539593
1.160  40.475057
1.159  40.457686
1.158  40.375759
1.157  40.334375
1.156  40.351713
1.155  40.317251
1.154  40.271479
1.153  40.258035
1.152  40.183429
1.151  40.220124
1.150  40.132453
1.149  40.151511
1.148  40.051387
1.147  40.075941
1.146  40.071992
1.145  39.973967
1.144  39.996168
1.143  39.919506
1.142  39.915400
1.141  39.886345
1.140  39.878975
1.139  39.865682
1.138  39.818181
1.137  39.834725
1.136  39.701834
1.135  39.634839
1.134  39.577298
1.133  39.540726
1.132  39.548744
1.131  39.577009
1.130  39.480710
1.129  39.496846
1.128  39.401619
1.127  39.414745
1.126  39.359861
1.125  39.403353
1.124  39.270005
1.123  39.365702
1.122  39.272564
1.121  39.228733
1.120  39.157817
1.119  39.126287
1.118  39.021576
1.117  39.116012
1.116  39.034303
1.115  38.959233
1.114  38.858232
1.113  38.874594
1.112  38.858651
1.111  38.861082
1.110  38.795796
1.109  38.683631
1.108  38.719564
1.107  38.689082
1.106  38.602163
1.105  38.642141
1.104  38.530535
1.103  38.600403
1.102  38.508178
1.101  38.376802
1.100  38.398622
1.099  38.452086
1.098  38.297605
1.097  38.384877
1.096  38.243642
1.095  38.311970
1.094  38.191207
1.093  38.188648
1.092  38.059898
1.091  38.081067
1.090  38.060922
1.089  38.077411
1.088  38.007270
1.087  38.005264
1.086  37.910451
1.085  37.961873
1.084  37.914669
1.083  37.869205
1.082  37.824900
1.081  37.841352
1.080  37.630196
1.079  37.720959
1.078  37.621968
1.077  37.726549
1.076  37.588432
1.075  37.569585
1.074  37.519447
1.073  37.526922
1.072  37.423866
1.071  37.621817
1.070  37.166327
1.069  37.466292
1.068  37.312743
1.067  37.395534
1.066  37.174870
1.065  37.252275
1.064  37.152031
1.063  37.148704
1.062  37.114345
1.061  37.122664
1.060  36.999629
1.059  37.068986
1.058  36.953674
1.057  37.018061
1.056  36.992778
1.055  36.911227
1.054  36.830726
1.053  36.890565
1.052  36.755194
1.051  36.840803
1.050  36.611193
1.049  36.766908
1.048  36.661976
1.047  36.667823
1.046  36.550836
1.045  36.677904
1.044  36.561779
1.043  36.565169
1.042  36.526847
1.041  36.528648
1.040  36.298745
1.039  36.444930
1.038  36.394826
1.037  36.362473
1.036  36.262539
1.035  36.304263
1.034  36.218506
1.033  36.272173
1.032  36.160186
1.031  36.174117
1.030  36.142269
1.029  36.120092
1.028  35.985576
1.027  36.122262
1.026  35.994010
1.025  35.977845
1.024  35.928001
1.023  35.940734
1.022  35.912914
1.021  35.897210
1.020  35.830998
1.019  35.821631
1.018  35.737824
1.017  35.775881
1.016  35.667291
1.015  35.763206
1.014  35.691269
1.013  35.626170
1.012  35.578791
1.011  35.598480
1.010  35.543207
1.009  35.515270
1.008  35.393767
1.007  35.485402
1.006  35.376349
1.005  35.411306
1.004  35.331604
1.003  35.343260
1.002  35.310234
1.001  35.269551
1.000  35.221917
0.999  35.306484
0.998  35.130446
0.997  35.233435
0.996  35.121980
0.995  35.140935
0.994  35.080198
0.993  35.096646
0.992  35.045720
0.991  35.023896
0.990  34.979233
0.989  34.959990
0.988  34.823921
0.987  34.888478
0.986  34.810976
0.985  34.834381
0.984  34.799139
0.983  34.738240
0.982  34.751949
0.981  34.764990
0.980  34.655151
0.979  34.652158
0.978  34.588587
0.977  34.611902
0.976  34.605895
0.975  34.586707
0.974  34.466822
0.973  34.440540
0.972  34.416493
0.971  34.399406
0.970  34.328446
0.969  34.227888
0.968  34.151478
0.967  34.222227
0.966  34.139962
0.965  34.157721
0.964  34.140468
0.963  34.131043
0.962  34.127522
0.961  34.193540
0.960  34.093126
0.959  34.104107
0.958  34.064150
0.957  34.116412
0.956  34.148829
0.955  34.044100
0.954  33.997328
0.953  34.001008
0.952  33.950408
0.951  33.950484
0.950  33.918214
0.949  33.865487
0.948  33.831617
0.947  33.891337
0.946  33.875002
0.945  33.813889
0.944  33.774545
0.943  33.792400
0.942  33.816708
0.941  33.767321
0.940  33.714798
0.939  33.736963
0.938  33.694354
0.937  33.695745
0.936  33.692748
0.935  33.670602
0.934  33.655859
0.933  33.663320
0.932  33.620735
0.931  33.597857
0.930  33.570817
0.929  33.547706
0.928  33.548696
0.927  33.544879
0.926  33.534738
0.925  33.557472
0.924  33.571601
0.923  33.481118
0.922  33.479035
0.921  33.501148
0.920  33.487279
0.919  33.418106
0.918  33.402663
0.917  33.393443
0.916  33.412329
0.915  33.389900
0.914  33.395432
0.913  33.402748
0.912  33.377689
0.911  33.359817
0.910  33.345813
0.909  33.323225
0.908  33.338286
0.907  33.301570
0.906  33.346477
0.905  33.340750
0.904  33.330086
0.903  33.372543
0.902  33.383163
0.901  33.323896
0.900  33.418031
0.899  33.375058
0.898  33.328771
0.897  33.321869
0.896  33.396554
0.895  33.347628
0.894  33.329676
0.893  33.321433
0.892  33.335822
0.891  33.298937
0.890  33.320371
0.889  33.338764
0.888  33.363205
0.887  33.358828
0.886  33.415965
0.885  33.360032
0.884  33.387291
0.883  33.371743
0.882  33.355625
0.881  33.302923
0.880  33.357778
0.879  33.386456
0.878  33.403614
0.877  33.428335
0.876  33.463062
0.875  33.404181
0.874  33.457347
0.873  33.427004
0.872  33.463847
0.871  33.409290
0.870  33.506734
0.869  33.474473
0.868  33.489326
0.867  33.465085
0.866  33.539407
0.865  33.480008
0.864  33.505967
0.863  33.470771
0.862  33.552626
0.861  33.542095
0.860  33.530367
0.859  33.499969
0.858  33.494895
0.857  33.463763
0.856  33.478526
0.855  33.439337
0.854  33.445320
0.853  33.442247
0.852  33.478557
0.851  33.432770
0.850  33.452635
0.849  33.482773
0.848  33.498784
0.847  33.454980
0.846  33.458273
0.845  33.463534
0.844  33.454680
0.843  33.453705
0.842  33.472022
0.841  33.481179
0.840  33.451715
0.839  33.475039
0.838  33.469528
0.837  33.463202
0.836  33.446726
0.835  33.447757
0.834  33.459277
0.833  33.459207
0.832  33.458919
0.831  33.468084
0.830  33.479858
0.829  33.467920
0.828  33.462031
0.827  33.430362
0.826  33.463877
0.825  33.449689
0.824  33.455573
0.823  33.469032
0.822  33.483409
0.821  33.463885
0.820  33.469781
0.819  33.453088
0.818  33.456129
0.817  33.449494
0.816  33.470104
0.815  33.457407
0.814  33.450194
0.813  33.448529
0.812  33.452548
0.811  33.438683
0.810  33.434954
0.809  33.431803
0.808  33.413210
0.807  33.416203
0.806  33.426988
0.805  33.418223
0.804  33.422053
0.803  33.385284
0.802  33.388536
0.801  33.400895
0.800  33.373661
0.799  33.368345
0.798  33.368639
0.797  33.363739
0.796  33.333426
0.795  33.329156
0.794  33.335571
0.793  33.329901
0.792  33.299146
0.791  33.310095
0.790  33.277167
0.789  33.285626
0.788  33.267679
0.787  33.263457
0.786  33.280052
0.785  33.241641
0.784  33.243615
0.783  33.229263
0.782  33.211307
0.781  33.207270
0.780  33.193107
0.779  33.174062
0.778  33.196399
0.777  33.181891
0.776  33.149007
0.775  33.155548
0.774  33.140790
0.773  33.110523
0.772  33.129341
0.771  33.095554
0.770  33.082985
0.769  33.077363
0.768  33.053287
0.767  33.030963
0.766  33.024691
0.765  33.016924
0.764  33.001144
0.763  32.965848
0.762  32.957104
0.761  32.931162
0.760  32.935243
0.759  32.897670
0.758  32.884101
0.757  32.877013
0.756  32.871819
0.755  32.834058
0.754  32.825917
0.753  32.792629
0.752  32.786723
0.751  32.752737
0.750  32.734886
0.749  32.729712
0.748  32.693448
0.747  32.681765
0.746  32.652753
0.745  32.616546
0.744  32.602776
0.743  32.579562
0.742  32.558113
0.741  32.533847
0.740  32.509864
0.739  32.480949
0.738  32.446059
0.737  32.431382
0.736  32.418676
0.735  32.376413
0.734  32.360622
0.733  32.320599
0.732  32.292393
0.731  32.266289
0.730  32.230553
0.729  32.198146
0.728  32.174923
0.727  32.149933
0.726  32.118378
0.725  32.093363
0.724  32.056082
0.723  32.028175
0.722  31.997861
0.721  31.958466
0.720  31.936458
0.719  31.906453
0.718  31.868357
0.717  31.833063
0.716  31.806853
0.715  31.760336
0.714  31.739420
0.713  31.708297
0.712  31.674629
0.711  31.628405
0.710  31.591357
0.709  31.558375
0.708  31.534422
0.707  31.494012
0.706  31.458425
0.705  31.422707
0.704  31.382707
0.703  31.357761
0.702  31.324234
0.701  31.286013
0.700  31.246897
0.699  31.211559
0.698  31.178096
0.697  31.144596
0.696  31.111135
0.695  31.074334
0.694  31.040295
0.693  31.003357
0.692  30.978970
0.691  30.944796
0.690  30.902834
0.689  30.857224
0.688  30.827851
0.687  30.798082
0.686  30.772082
0.685  30.744782
0.684  30.701925
0.683  30.668836
0.682  30.631466
0.681  30.606982
0.680  30.570797
0.679  30.528588
0.678  30.502859
0.677  30.471684
0.676  30.433600
0.675  30.400568
0.674  30.367325
0.673  30.340906
0.672  30.314539
0.671  30.281720
0.670  30.251093
0.669  30.219035
0.668  30.189336
0.667  30.151176
0.666  30.123883
0.665  30.096322
0.664  30.057123
0.663  30.028672
0.662  30.005478
0.661  29.971144
0.660  29.939633
0.659  29.915479
0.658  29.882452
0.657  29.851941
0.656  29.827731
0.655  29.800421
0.654  29.770938
0.653  29.737623
0.652  29.714039
0.651  29.684578
0.650  29.650882
0.649  29.626627
0.648  29.593375
0.647  29.566123
0.646  29.539479
0.645  29.508437
0.644  29.481720
0.643  29.455717
0.642  29.428408
0.641  29.402368
0.640  29.368552
0.639  29.335922
0.638  29.311164
0.637  29.287601
0.636  29.263621
0.635  29.233506
0.634  29.200587
0.633  29.168480
0.632  29.137083
0.631  29.106410
0.630  29.077750
0.629  29.049465
0.628  29.020465
0.627  28.990880
0.626  28.962474
0.625  28.932251
0.624  28.899144
0.623  28.870751
0.622  28.843197
0.621  28.807845
0.620  28.770465
0.619  28.739219
0.618  28.705875
0.617  28.671847
0.616  28.640176
0.615  28.600650
0.614  28.566706
0.613  28.533607
0.612  28.493510
0.611  28.455230
0.610  28.412219
0.609  28.374417
0.608  28.340331
0.607  28.296736
0.606  28.253239
0.605  28.211803
0.604  28.168972
0.603  28.121610
0.602  28.074118
0.601  28.026630
0.600  27.979265
0.599  27.942031
0.598  27.892942
0.597  27.844962
0.596  27.798203
0.595  27.754056
0.594  27.696445
0.593  27.637925
0.592  27.586640
0.591  27.527404
0.590  27.469413
0.589  27.406526
0.588  27.345686
0.587  27.286751
0.586  27.221447
0.585  27.157350
0.584  27.094437
0.583  27.025857
0.582  26.955816
0.581  26.893047
0.580  26.817649
0.579  26.750501
0.578  26.687763
0.577  26.614707
0.576  26.545153
0.575  26.474506
0.574  26.404161
0.573  26.334250
0.572  26.262050
0.571  26.182525
0.570  26.110374
0.569  26.033691
0.568  25.958846
0.567  25.886192
0.566  25.810105
0.565  25.741637
0.564  25.665498
0.563  25.591488
0.562  25.515237
0.561  25.472512
0.560  25.409590
0.559  25.345842
0.558  25.272789
0.557  25.201688
0.556  25.132284
0.555  25.070165
0.554  24.999105
0.553  24.934206
0.552  24.862317
0.551  24.792459
0.550  24.733636
0.549  24.665841
0.548  24.596455
0.547  24.531393
0.546  24.464794
0.545  24.398368
0.544  24.327872
0.543  24.270875
0.542  24.208772
0.541  24.141634
0.540  24.079773
0.539  24.020122
0.538  23.958910
0.537  23.893378
0.536  23.827889
0.535  23.767307
0.534  23.702985
0.533  23.650680
0.532  23.584172
0.531  23.527702
0.530  23.462685
0.529  23.400661
0.528  23.347220
0.527  23.288726
0.526  23.235266
0.525  23.175495
0.524  23.114656
0.523  23.060532
0.522  23.004894
0.521  22.950869
0.520  22.897446
0.519  22.842349
0.518  22.782037
0.517  22.724014
0.516  22.684169
0.515  22.633956
0.514  22.590406
0.513  22.539181
0.512  22.487381
0.511  22.441340
0.510  22.397955
0.509  22.359308
0.508  22.315542
0.507  22.265972
0.506  22.228444
0.505  22.183643
0.504  22.147124
0.503  22.102469
0.502  22.063323
0.501  22.035565
0.500  21.995460
0.499  21.962897
0.498  21.931580
0.497  21.896835
0.496  21.864644
0.495  21.837085
0.494  21.804357
0.493  21.777869
0.492  21.753385
0.491  21.718554
0.490  21.696514
0.489  21.674387
0.488  21.654388
0.487  21.638052
0.486  21.635216
0.485  21.616666
0.484  21.597041
0.483  21.562663
0.482  21.510325
0.481  21.456192
0.480  21.398150
0.479  21.345690
0.478  21.303097
0.477  21.261600
0.476  21.225887
0.475  21.218162
0.474  21.186994
0.473  21.170879
0.472  21.137075
0.471  21.120954
0.470  21.097333
0.469  21.083511
0.468  21.061671
0.467  21.044803
0.466  21.024336
0.465  21.013149
0.464  20.997473
0.463  20.986291
0.462  20.973147
0.461  20.957284
0.460  20.950821
0.459  20.946859
0.458  20.932978
0.457  20.925304
0.456  20.914248
0.455  20.903393
0.454  20.893353
0.453  20.880176
0.452  20.871311
0.451  20.858536
0.450  20.843204
0.449  20.820977
0.448  20.801647
0.447  20.791872
0.446  20.776041
0.445  20.769369
0.444  20.740495
0.443  20.702109
0.442  20.658082
0.441  20.614935
0.440  20.574585
0.439  20.534169
0.438  20.496110
0.437  20.450488
0.436  20.411027
0.435  20.368337
0.434  20.322273
0.433  20.287116
0.432  20.235593
0.431  20.195088
0.430  20.163580
0.429  20.122431
0.428  20.070074
0.427  20.034923
0.426  19.995198
0.425  19.955596
0.424  19.925060
0.423  19.897088
0.422  19.858863
0.421  19.828747
0.420  19.792972
0.419  19.764118
0.418  19.734006
0.417  19.706501
0.416  19.676857
0.415  19.641857
0.414  19.617642
0.413  19.595510
0.412  19.573503
0.411  19.542600
0.410  19.518442
0.409  19.483374
0.408  19.473255
0.407  19.449612
0.406  19.426367
0.405  19.401853
0.404  19.373616
0.403  19.350886
0.402  19.325227
0.401  19.302220
0.400  19.278219
