Name: Anthophyllite (Mg,Fe^2+)_7Si_8O_22(OH)_2
Type: Mineral
Class: Silicates
Subclass: Inosilicates
Particle Size: 125-500um
Sample No.: IN-8A
Owner: JPL
Wavelength range: IR
Origin: USA, North Carolina
Collected by Ward's
Description: 





Measurement: Hemispherical reflectance
First Column: X
Second Column: Y
X Units:  Wavelength (micrometers)
Y Units:  Reflectance (percent)
First X Value: 15.3853
Last X Value: 2.00032
Number of X Values: 2256
Additional information: in08aa.txt
 
15.3853	3.90458
15.3397	3.99932
15.2945	4.07851
15.2495	4.18722
15.2048	4.30855
15.1603	4.46666
15.1161	4.60747
15.0722	5.03569
15.0285	5.86293
14.9851	7.19908
14.9419	8.5601
14.8989	9.42478
14.8563	9.93658
14.8138	10.0874
14.7716	10.081
14.7296	9.78537
14.6879	9.27022
14.6464	8.74703
14.6052	8.07535
14.5641	7.13462
14.5233	5.93763
14.4828	4.61046
14.4424	3.43023
14.4023	2.74672
14.3624	2.28294
14.3227	1.83907
14.2833	1.48541
14.244	1.40554
14.205	1.37091
14.1662	1.30248
14.1276	1.22899
14.0892	1.33699
14.051	1.30124
14.0131	1.18822
13.9753	1.29589
13.9377	1.44505
13.9004	1.67634
13.8632	1.71305
13.8262	1.69748
13.7895	1.80916
13.7529	1.78208
13.7165	1.85691
13.6803	1.97765
13.6443	1.92183
13.6085	1.99175
13.5729	2.143
13.5374	2.22164
13.5022	2.30585
13.4671	2.5019
13.4322	2.60827
13.3975	2.71294
13.363	2.89128
13.3286	2.94457
13.2944	2.86092
13.2604	2.81712
13.2266	2.7755
13.193	2.7549
13.1595	2.83146
13.1262	2.93358
13.093	3.05649
13.06	3.09676
13.0272	3.0152
12.9946	3.06449
12.9621	3.29562
12.9298	3.26011
12.8976	3.27274
12.8656	3.25861
12.8337	3.24839
12.8021	3.29033
12.7705	3.3764
12.7391	3.44785
12.7079	3.28241
12.6769	3.37787
12.6459	3.5471
12.6152	3.5961
12.5845	3.68178
12.5541	3.78859
12.5238	3.96806
12.4936	4.09102
12.4635	4.22622
12.4337	4.36325
12.4039	4.46592
12.3743	4.54727
12.3448	4.68983
12.3155	4.91937
12.2863	5.01998
12.2573	5.29101
12.2284	5.5354
12.1996	5.55709
12.171	5.54861
12.1425	5.76397
12.1141	5.91985
12.0859	6.05783
12.0578	6.25418
12.0298	6.24196
12.0019	6.354
11.9742	6.5388
11.9466	6.7339
11.9192	6.87136
11.8918	6.79016
11.8646	6.54841
11.8375	6.43557
11.8106	6.53031
11.7837	6.60523
11.757	6.71068
11.7304	6.79829
11.7039	6.97178
11.6776	7.18513
11.6513	7.24375
11.6252	7.36766
11.5992	7.67254
11.5733	7.85654
11.5475	7.98479
11.5219	8.17187
11.4963	8.46864
11.4709	8.79043
11.4455	9.04217
11.4203	9.23234
11.3952	9.48533
11.3702	9.71665
11.3454	9.822
11.3206	9.94516
11.2959	9.8749
11.2714	9.78362
11.2469	9.93364
11.2226	10.0196
11.1983	9.899
11.1742	9.7661
11.1502	9.83551
11.1263	9.85933
11.1024	9.88724
11.0787	9.96246
11.0551	10.0711
11.0316	10.0882
11.0081	9.97117
10.9848	9.93347
10.9616	10.0913
10.9385	10.1132
10.9154	10.0528
10.8925	10.1573
10.8697	10.3289
10.8469	10.2569
10.8243	10.2984
10.8017	10.5761
10.7793	10.9685
10.7569	11.2479
10.7346	11.4148
10.7125	11.6093
10.6904	11.718
10.6684	11.7352
10.6465	11.8483
10.6247	11.9814
10.6029	11.9854
10.5813	12.0508
10.5597	12.1521
10.5383	12.1122
10.5169	11.9468
10.4956	11.7746
10.4744	11.6947
10.4533	11.3874
10.4323	10.9041
10.4113	10.6743
10.3904	10.6376
10.3697	10.5646
10.349	10.4626
10.3284	10.5177
10.3078	10.7112
10.2874	10.9027
10.267	11.1584
10.2467	11.3941
10.2265	11.6067
10.2064	11.8956
10.1863	12.0893
10.1663	12.2032
10.1464	12.1871
10.1266	12.0242
10.1069	11.7817
10.0872	11.5184
10.0676	11.4127
10.0481	11.4697
10.0287	11.507
10.0093	11.4954
9.99005	11.6333
9.97084	11.9443
9.95169	12.2937
9.93263	12.7703
9.91364	13.3858
9.89472	14.224
9.87587	15.2423
9.8571	16.4585
9.83839	17.6477
9.81976	18.8647
9.80119	19.8989
9.78271	20.7449
9.76428	21.3547
9.74592	21.8263
9.72764	22.2814
9.70943	22.6597
9.69128	22.9812
9.6732	23.1359
9.65518	23.2754
9.63724	23.3983
9.61935	23.2792
9.60155	23.1664
9.5838	23.075
9.56611	22.826
9.5485	22.444
9.53094	21.8865
9.51345	20.9951
9.49604	20.0675
9.47867	19.6671
9.46137	19.8413
9.44414	20.1355
9.42697	20.5019
9.40986	20.9194
9.39281	21.1272
9.37583	21.1332
9.35891	21.4124
9.34204	21.6626
9.32524	21.4865
9.3085	21.3659
9.29182	21.2617
9.27519	20.7953
9.25863	20.2502
9.24213	19.8541
9.22568	19.4113
9.2093	19.0328
9.19297	18.7849
9.17669	18.5781
9.16048	18.6004
9.14433	18.794
9.12823	18.9877
9.11218	19.1367
9.0962	19.129
9.08027	19.0005
9.06439	18.8081
9.04858	18.6009
9.03281	18.4746
9.0171	18.5613
9.00145	18.7
8.98585	18.811
8.9703	18.6491
8.9548	18.3336
8.93937	18.0751
8.92398	17.8347
8.90865	17.5111
8.89337	17.2757
8.87814	17.141
8.86296	16.9864
8.84784	16.7754
8.83277	16.4695
8.81774	16.2478
8.80277	15.9939
8.78786	15.7215
8.77298	15.3934
8.75816	15.0106
8.7434	14.6173
8.72868	14.1384
8.714	13.5416
8.69938	12.8119
8.68481	11.9813
8.67029	11.1844
8.65581	10.6318
8.64139	10.0134
8.62701	9.20837
8.61268	8.44833
8.5984	7.84711
8.58416	7.31193
8.56997	6.76199
8.55583	6.18866
8.54174	5.64699
8.52769	5.40883
8.51368	5.11719
8.49973	4.71816
8.48582	4.36595
8.47195	4.08362
8.45813	3.79773
8.44436	3.39637
8.43062	3.08679
8.41693	2.93605
8.4033	2.68168
8.3897	2.55895
8.37614	2.46445
8.36264	2.23886
8.34917	2.04226
8.33574	1.90044
8.32236	1.77831
8.30903	1.6375
8.29573	1.52513
8.28248	1.51362
8.26927	1.41355
8.2561	1.31203
8.24298	1.33041
8.2299	1.32554
8.21685	1.18198
8.20385	1.10055
8.19089	1.07586
8.17797	1.12143
8.16509	1.12046
8.15225	1.05841
8.13946	1.03541
8.1267	1.02537
8.11398	1.00172
8.10131	0.924847
8.08867	0.875855
8.07606	0.966065
8.0635	0.966093
8.05099	0.875488
8.0385	0.853937
8.02606	0.930148
8.01366	1.02367
8.00129	1.00749
7.98896	1.01692
7.97667	1.16931
7.96442	1.19837
7.9522	1.1835
7.94002	1.17387
7.92788	1.17864
7.91578	1.20048
7.90371	1.22646
7.89168	1.24625
7.87969	1.2154
7.86773	1.18971
7.85581	1.26836
7.84392	1.32714
7.83207	1.37916
7.82026	1.44821
7.80849	1.44257
7.79674	1.38721
7.78503	1.38622
7.77337	1.44912
7.76173	1.5503
7.75012	1.61373
7.73856	1.61923
7.72703	1.5552
7.71553	1.58782
7.70406	1.68484
7.69263	1.76678
7.68123	1.69539
7.66987	1.62819
7.65855	1.70291
7.64725	1.82266
7.63598	1.83612
7.62475	1.77391
7.61356	1.8201
7.60239	1.92597
7.59126	1.92018
7.58017	1.90244
7.5691	1.98912
7.55806	1.99994
7.54707	2.07674
7.5361	2.16436
7.52516	2.16481
7.51425	2.19167
7.50338	2.23054
7.49253	2.29263
7.48172	2.35444
7.47094	2.39629
7.46019	2.46285
7.44947	2.54514
7.43879	2.54035
7.42813	2.63887
7.4175	2.684
7.4069	2.67249
7.39634	2.72147
7.3858	2.72266
7.37529	2.76165
7.36482	2.87342
7.35437	2.93544
7.34396	2.92436
7.33357	2.92914
7.32321	3.00152
7.31288	3.06983
7.30258	3.14495
7.29231	3.27738
7.28207	3.42352
7.27185	3.41609
7.26167	3.41112
7.25152	3.43462
7.24139	3.46813
7.23129	3.47648
7.22122	3.54136
7.21117	3.58962
7.20116	3.54616
7.19117	3.53639
7.18121	3.65984
7.17128	3.79826
7.16137	3.79526
7.1515	3.85417
7.14164	3.9265
7.13182	3.91506
7.12203	3.94032
7.11225	4.00607
7.10251	4.03022
7.0928	4.12754
7.08311	4.20524
7.07344	4.25788
7.06381	4.36093
7.0542	4.52629
7.04461	4.63847
7.03506	4.53953
7.02552	4.55207
7.01601	4.69343
7.00653	4.79131
6.99708	4.90674
6.98765	4.97144
6.97824	5.03515
6.96886	5.21924
6.95951	5.40679
6.95018	5.44851
6.94087	5.5167
6.9316	5.5929
6.92234	5.72568
6.91311	5.93825
6.90391	6.09024
6.89473	6.14543
6.88557	6.20401
6.87644	6.32627
6.86733	6.50645
6.85824	6.41038
6.84918	6.29383
6.84015	6.36495
6.83114	6.52907
6.82215	6.62525
6.81319	6.60711
6.80424	6.82668
6.79532	7.1353
6.78643	7.2983
6.77756	7.29081
6.76871	7.30264
6.75989	7.34255
6.75109	7.52707
6.74231	7.62345
6.73355	7.77248
6.72482	8.02252
6.71611	8.21927
6.70742	8.25195
6.69875	8.22697
6.69011	8.42721
6.68149	8.7203
6.67289	8.79196
6.66431	8.73561
6.65576	8.69649
6.64722	8.86071
6.63871	9.2423
6.63022	9.20671
6.62175	9.02301
6.61331	8.9191
6.60488	8.77453
6.59648	8.79889
6.5881	8.90752
6.57974	9.03779
6.5714	9.17161
6.56308	9.02126
6.55478	8.97877
6.54651	8.91567
6.53825	8.85531
6.53001	8.809
6.5218	8.91385
6.51361	8.9348
6.50544	9.05338
6.49729	9.5059
6.48915	9.68749
6.48104	9.51486
6.47295	9.40857
6.46488	9.29467
6.45683	9.2273
6.4488	9.23783
6.44079	9.32299
6.4328	9.43397
6.42482	9.60706
6.41687	10.0634
6.40894	9.84639
6.40103	9.44454
6.39314	9.48645
6.38526	9.59054
6.37741	9.58493
6.36957	9.53074
6.36176	9.47359
6.35396	9.54354
6.34618	9.77806
6.33843	9.71885
6.33069	9.57658
6.32297	9.50643
6.31527	9.4423
6.30758	9.39134
6.29992	9.32746
6.29227	9.39863
6.28465	9.44451
6.27704	9.40214
6.26945	9.38901
6.26188	9.34788
6.25432	9.30689
6.24679	9.29721
6.23927	9.23571
6.23177	9.07427
6.22429	8.96319
6.21683	8.96926
6.20938	8.94296
6.20195	8.9083
6.19454	8.8958
6.18715	9.01791
6.17978	8.93019
6.17242	8.61368
6.16508	8.51149
6.15776	8.49672
6.15045	8.36427
6.14317	8.17077
6.1359	7.95684
6.12864	7.83466
6.12141	7.68978
6.11419	7.46016
6.10699	7.00458
6.0998	6.68899
6.09263	6.48339
6.08549	6.29881
6.07835	6.29873
6.07123	6.29787
6.06413	6.13727
6.05705	6.14646
6.04998	6.36497
6.04293	6.06258
6.0359	5.72018
6.02888	5.60831
6.02187	5.49087
6.01489	5.47437
6.00792	5.41842
6.00096	5.31224
5.99403	5.36424
5.98711	5.3281
5.9802	5.22909
5.97331	5.4285
5.96644	5.54945
5.95958	5.48537
5.95274	5.65291
5.94591	6.0098
5.9391	6.47201
5.9323	6.65534
5.92552	6.66793
5.91876	6.84093
5.91201	6.93051
5.90528	7.00932
5.89856	7.16179
5.89186	7.04733
5.88517	7.04074
5.8785	6.97962
5.87184	6.6275
5.8652	6.42036
5.85857	6.29241
5.85196	6.25415
5.84536	6.23542
5.83878	6.37543
5.83221	6.64007
5.82566	7.01093
5.81912	7.19331
5.81259	7.08418
5.80608	7.14401
5.79959	7.26632
5.79311	7.30398
5.78665	7.32533
5.78019	7.43551
5.77376	7.59001
5.76734	7.84921
5.76093	7.78265
5.75453	7.6775
5.74815	7.74286
5.74179	7.63205
5.73543	7.5346
5.7291	7.47485
5.72277	7.47875
5.71646	7.45442
5.71017	7.36685
5.70389	7.19639
5.69762	7.01236
5.69136	6.92033
5.68513	6.79079
5.6789	6.87081
5.67268	6.91108
5.66648	6.81127
5.6603	6.85858
5.65413	6.9435
5.64797	6.96662
5.64182	6.9953
5.63569	6.86646
5.62957	6.78584
5.62347	6.84704
5.61737	6.90521
5.61129	6.88399
5.60522	6.78571
5.59917	6.69765
5.59313	6.67044
5.5871	6.72985
5.58109	6.76867
5.57509	6.63177
5.5691	6.51455
5.56312	6.58523
5.55716	6.61816
5.55121	6.53378
5.54528	6.50412
5.53935	6.56778
5.53344	6.5571
5.52754	6.55367
5.52166	6.55469
5.51578	6.56474
5.50992	6.56715
5.50407	6.5722
5.49823	6.55184
5.49241	6.53946
5.4866	6.53432
5.4808	6.52881
5.47501	6.649
5.46923	6.85345
5.46347	7.0303
5.45772	7.09669
5.45198	7.22833
5.44625	7.41716
5.44054	7.55104
5.43484	7.74483
5.42914	8.01792
5.42347	8.2727
5.4178	8.31476
5.41214	8.22287
5.4065	8.20792
5.40087	8.28684
5.39525	8.30991
5.38964	8.27002
5.38404	8.20917
5.37846	8.1613
5.37288	8.24273
5.36732	8.37352
5.36177	8.46114
5.35623	8.53757
5.35071	8.63713
5.34519	8.62695
5.33968	8.67471
5.33419	8.86016
5.32871	8.98929
5.32324	9.12297
5.31778	9.24829
5.31233	9.32376
5.30689	9.39004
5.30147	9.43398
5.29605	9.51874
5.29065	9.65609
5.28525	9.68871
5.27987	9.6477
5.2745	9.60338
5.26914	9.57654
5.26379	9.55794
5.25845	9.48636
5.25312	9.37254
5.24781	9.24255
5.2425	9.11719
5.23721	9.04278
5.23192	8.93992
5.22665	8.87409
5.22138	8.87688
5.21613	8.91338
5.21089	8.94703
5.20566	8.95581
5.20044	9.06251
5.19522	9.21292
5.19002	9.46072
5.18483	9.62689
5.17965	9.79106
5.17448	10.0081
5.16933	10.2938
5.16418	10.4884
5.15904	10.5693
5.15391	10.6067
5.14879	10.6509
5.14368	10.7604
5.13859	10.869
5.1335	10.9466
5.12842	11.0747
5.12335	11.2771
5.1183	11.4155
5.11325	11.6274
5.10821	11.9573
5.10318	12.3115
5.09817	12.7336
5.09316	13.1753
5.08816	13.5592
5.08317	14.0133
5.07819	14.3994
5.07322	14.6891
5.06826	14.9919
5.06331	15.3165
5.05837	15.5827
5.05344	15.7857
5.04852	15.8886
5.04361	16.0543
5.03871	16.1812
5.03382	16.2567
5.02894	16.3093
5.02406	16.3307
5.0192	16.3929
5.01435	16.4372
5.0095	16.4282
5.00467	16.336
4.99984	16.317
4.99502	16.29
4.99021	16.2013
4.98542	16.2457
4.98063	16.3546
4.97585	16.3087
4.97108	16.1537
4.96632	16.0542
4.96156	16.047
4.95682	16.0178
4.95209	15.8769
4.94736	15.7716
4.94264	15.8156
4.93794	15.9119
4.93324	16.0756
4.92855	16.2833
4.92387	16.513
4.9192	16.8271
4.91453	17.1422
4.90988	17.4193
4.90524	17.6493
4.9006	17.9146
4.89597	18.17
4.89135	18.4686
4.88674	18.7864
4.88214	19.1758
4.87755	19.6003
4.87296	19.9561
4.86839	20.1834
4.86382	20.4092
4.85926	20.6635
4.85471	20.8316
4.85017	21.0104
4.84564	21.1876
4.84111	21.304
4.8366	21.4865
4.83209	21.6388
4.82759	21.7786
4.8231	21.8568
4.81862	21.9237
4.81415	22.0582
4.80968	22.1939
4.80522	22.2906
4.80077	22.4248
4.79633	22.5507
4.7919	22.7022
4.78747	22.872
4.78306	22.992
4.77865	23.1635
4.77425	23.379
4.76986	23.5398
4.76547	23.7078
4.7611	23.9225
4.75673	24.1467
4.75237	24.2772
4.74802	24.3411
4.74367	24.4553
4.73934	24.516
4.73501	24.5576
4.73069	24.5772
4.72638	24.547
4.72207	24.5282
4.71777	24.5751
4.71348	24.5798
4.7092	24.6208
4.70493	24.6961
4.70066	24.7123
4.69641	24.8333
4.69216	24.9973
4.68791	25.1238
4.68368	25.2173
4.67945	25.3382
4.67523	25.5325
4.67102	25.6256
4.66682	25.62
4.66262	25.6497
4.65843	25.7394
4.65425	25.8849
4.65007	25.9975
4.64591	26.0597
4.64175	26.204
4.6376	26.4465
4.63345	26.6763
4.62932	26.9279
4.62519	27.2488
4.62106	27.4963
4.61695	27.7294
4.61284	28.0115
4.60874	28.265
4.60465	28.4736
4.60056	28.6994
4.59648	28.9403
4.59241	29.1378
4.58835	29.2393
4.58429	29.3616
4.58024	29.4713
4.5762	29.6019
4.57216	29.7512
4.56814	29.87
4.56411	29.9353
4.5601	30.034
4.55609	30.1393
4.55209	30.209
4.5481	30.3367
4.54411	30.4865
4.54013	30.5927
4.53616	30.6076
4.5322	30.6412
4.52824	30.7183
4.52429	30.7817
4.52034	30.8209
4.51641	30.9254
4.51247	30.9693
4.50855	30.994
4.50463	30.9906
4.50072	31.0246
4.49682	31.075
4.49292	31.1236
4.48903	31.1502
4.48515	31.2396
4.48127	31.4067
4.4774	31.4869
4.47354	31.4851
4.46968	31.4526
4.46584	31.5202
4.46199	31.5863
4.45815	31.5708
4.45432	31.6295
4.4505	31.7791
4.44668	31.8905
4.44287	31.9272
4.43907	32.0175
4.43527	32.2105
4.43148	32.4023
4.4277	32.51
4.42392	32.6042
4.42015	32.7142
4.41638	32.8341
4.41262	32.9226
4.40887	33.0084
4.40513	32.9876
4.40139	33.0281
4.39765	33.143
4.39393	33.2333
4.39021	33.2897
4.38649	33.3398
4.38278	33.4831
4.37908	33.5872
4.37539	33.6576
4.3717	33.6957
4.36801	33.7358
4.36434	33.8558
4.36067	33.935
4.357	33.9419
4.35335	33.9201
4.34969	33.9457
4.34605	33.9394
4.34241	34.0027
4.33877	34.0375
4.33514	34.1741
4.33152	34.2549
4.32791	34.2801
4.3243	34.3981
4.32069	34.4582
4.3171	34.441
4.31351	34.5071
4.30992	34.6101
4.30634	34.6776
4.30277	34.722
4.2992	34.8293
4.29564	34.8928
4.29208	34.9438
4.28853	35.0295
4.28499	35.0533
4.28145	35.0139
4.27792	35.0852
4.27439	35.2009
4.27087	35.2282
4.26735	35.2323
4.26384	35.1941
4.26034	35.1391
4.25684	35.1391
4.25335	35.238
4.24986	35.3893
4.24638	35.4687
4.24291	35.6116
4.23944	35.7153
4.23598	35.8173
4.23252	35.8468
4.22906	35.7918
4.22562	35.7712
4.22218	35.7209
4.21874	35.687
4.21531	35.6459
4.21189	35.5867
4.20847	35.5713
4.20506	35.5878
4.20165	35.6744
4.19825	35.6401
4.19485	35.5845
4.19146	35.6045
4.18807	35.6125
4.18469	35.6574
4.18132	35.663
4.17795	35.6459
4.17458	35.7022
4.17123	35.7577
4.16787	35.788
4.16453	35.799
4.16118	35.8145
4.15785	35.8431
4.15451	35.8824
4.15119	35.9286
4.14787	35.9182
4.14455	35.922
4.14124	35.9286
4.13794	35.9736
4.13464	36.0242
4.13134	36.0384
4.12805	36.1012
4.12477	36.2019
4.12149	36.2607
4.11822	36.2766
4.11495	36.2941
4.11168	36.2619
4.10843	36.2332
4.10517	36.2458
4.10192	36.2865
4.09868	36.3403
4.09545	36.4086
4.09221	36.4614
4.08899	36.4347
4.08576	36.3745
4.08255	36.3321
4.07933	36.3828
4.07613	36.4193
4.07292	36.4049
4.06973	36.4153
4.06654	36.4606
4.06335	36.4913
4.06017	36.4736
4.05699	36.454
4.05382	36.493
4.05065	36.5192
4.04749	36.5544
4.04433	36.5125
4.04118	36.4769
4.03803	36.5305
4.03489	36.5377
4.03175	36.5141
4.02862	36.5019
4.02549	36.4871
4.02237	36.4726
4.01925	36.5068
4.01614	36.587
4.01303	36.6347
4.00993	36.6724
4.00683	36.6695
4.00373	36.7062
4.00064	36.7508
3.99756	36.7376
3.99448	36.8022
3.9914	36.8211
3.98833	36.7747
3.98527	36.8448
3.98221	36.9803
3.97915	37.0399
3.9761	37.0574
3.97305	37.0272
3.97001	37.0163
3.96697	37.0068
3.96394	37.0359
3.96091	37.0304
3.95789	36.9991
3.95487	36.9684
3.95186	36.9818
3.94885	36.9994
3.94584	37.033
3.94284	37.1283
3.93984	37.1998
3.93685	37.1543
3.93386	37.1172
3.93088	37.0827
3.9279	37.1297
3.92493	37.1188
3.92196	37.154
3.919	37.2355
3.91604	37.2248
3.91308	37.2271
3.91013	37.2321
3.90718	37.1792
3.90424	37.2459
3.9013	37.3414
3.89837	37.2993
3.89544	37.3123
3.89252	37.3691
3.8896	37.3353
3.88668	37.3051
3.88377	37.2592
3.88086	37.3047
3.87796	37.3406
3.87506	37.323
3.87217	37.3374
3.86928	37.3672
3.86639	37.3292
3.86351	37.3668
3.86064	37.4387
3.85776	37.4215
3.8549	37.4057
3.85203	37.4777
3.84917	37.5627
3.84631	37.5586
3.84346	37.4359
3.84062	37.3637
3.83777	37.4455
3.83494	37.4873
3.8321	37.4899
3.82927	37.5126
3.82644	37.5368
3.82362	37.4898
3.82081	37.4443
3.81799	37.4948
3.81518	37.464
3.81238	37.4744
3.80958	37.6017
3.80678	37.6518
3.80399	37.6455
3.8012	37.6366
3.79841	37.6315
3.79563	37.6863
3.79286	37.7185
3.79008	37.716
3.78731	37.7579
3.78455	37.7237
3.78179	37.7019
3.77903	37.8223
3.77628	37.8777
3.77353	37.8792
3.77079	37.8431
3.76805	37.8182
3.76531	37.8378
3.76258	37.9104
3.75985	37.8683
3.75713	37.8253
3.7544	37.8488
3.75169	37.8759
3.74898	37.9429
3.74627	38.0148
3.74356	37.9566
3.74086	37.8892
3.73816	37.9227
3.73547	37.9783
3.73278	37.9739
3.7301	37.9101
3.72741	37.9833
3.72474	38.0276
3.72206	37.9271
3.71939	37.9448
3.71673	37.961
3.71406	37.9391
3.71141	37.9107
3.70875	37.9079
3.7061	37.8881
3.70345	37.8862
3.70081	37.8817
3.69817	37.8708
3.69553	37.8628
3.6929	37.7281
3.69027	37.2879
3.68765	37.3649
3.68503	37.7908
3.68241	37.8864
3.6798	37.9626
3.67719	37.9159
3.67458	37.8351
3.67198	37.8775
3.66938	37.9105
3.66678	37.8668
3.66419	37.8455
3.66161	37.807
3.65902	37.7961
3.65644	37.7974
3.65387	37.7828
3.65129	37.7772
3.64872	37.7508
3.64616	37.7549
3.64359	37.6827
3.64103	37.66
3.63848	37.722
3.63593	37.7239
3.63338	37.6483
3.63084	37.6257
3.6283	37.6629
3.62576	37.6362
3.62322	37.5843
3.62069	37.6019
3.61817	37.6657
3.61564	37.6158
3.61312	37.6078
3.61061	37.5732
3.6081	37.5782
3.60559	37.6226
3.60308	37.5217
3.60058	37.4431
3.59808	37.4877
3.59558	37.5162
3.59309	37.4948
3.59061	37.4813
3.58812	37.447
3.58564	37.4603
3.58316	37.4392
3.58069	37.36
3.57822	37.3531
3.57575	37.4171
3.57328	37.3674
3.57082	37.2925
3.56836	37.3069
3.56591	37.3147
3.56346	37.2432
3.56101	37.205
3.55857	37.256
3.55613	37.296
3.55369	37.2503
3.55126	37.1738
3.54883	37.1877
3.5464	37.2124
3.54397	37.1275
3.54155	37.0252
3.53914	37.0359
3.53672	37.0936
3.53431	37.0701
3.5319	37.0163
3.5295	36.9209
3.5271	36.8489
3.5247	36.7502
3.52231	36.7152
3.51991	36.7637
3.51753	36.6986
3.51514	36.6556
3.51276	36.6321
3.51038	36.4155
3.50801	36.2629
3.50563	36.2198
3.50327	36.2143
3.5009	36.1332
3.49854	36.0526
3.49618	36.0597
3.49382	36.1026
3.49147	36.0396
3.48912	35.9951
3.48677	35.99
3.48443	35.9742
3.48209	35.9885
3.47975	35.9511
3.47742	35.8251
3.47509	35.8981
3.47276	35.9674
3.47044	35.9221
3.46812	35.8807
3.4658	35.9038
3.46348	35.9
3.46117	35.8838
3.45886	35.8667
3.45656	35.8114
3.45425	35.7474
3.45195	35.6817
3.44966	35.6389
3.44736	35.6622
3.44507	35.6513
3.44279	35.4986
3.4405	35.3452
3.43822	35.3092
3.43594	35.2476
3.43367	35.1452
3.43139	35.0494
3.42912	34.8972
3.42686	34.8769
3.42459	34.8627
3.42233	34.8051
3.42007	34.6813
3.41782	34.5751
3.41557	34.4456
3.41332	34.3012
3.41108	34.2676
3.40883	34.2825
3.40659	34.1962
3.40435	34.1471
3.40212	34.1332
3.39989	34.1091
3.39766	34.1395
3.39544	34.1119
3.39322	33.9965
3.391	33.9069
3.38878	33.7478
3.38657	33.6249
3.38436	33.5657
3.38215	33.3676
3.37994	33.2922
3.37774	33.2397
3.37554	33.0199
3.37335	32.747
3.37115	32.5563
3.36896	32.3811
3.36678	32.1341
3.36459	31.8618
3.36241	31.436
3.36023	30.9893
3.35805	30.7135
3.35588	30.5207
3.35371	30.4894
3.35154	30.7148
3.34938	31.1012
3.34721	31.596
3.34505	32.049
3.3429	32.2693
3.34074	32.3995
3.33859	32.4968
3.33644	32.5258
3.3343	32.4239
3.33215	32.1929
3.33001	32.0216
3.32788	31.6865
3.32574	31.2865
3.32361	30.855
3.32148	30.4666
3.31936	30.1885
3.31723	29.9172
3.31511	29.6495
3.31299	29.5101
3.31088	29.4753
3.30876	29.4785
3.30665	29.7296
3.30455	30.1221
3.30244	30.6118
3.30034	31.1153
3.29824	31.5449
3.29614	31.8846
3.29405	32.1669
3.29196	32.2801
3.28987	32.3249
3.28778	32.3341
3.2857	32.3443
3.28362	32.3385
3.28154	32.3224
3.27946	32.3357
3.27739	32.4752
3.27532	32.6011
3.27325	32.707
3.27119	32.7581
3.26913	32.7551
3.26707	32.7084
3.26501	32.6792
3.26295	32.7691
3.2609	32.8389
3.25885	32.8684
3.2568	32.8834
3.25476	32.7932
3.25272	32.7402
3.25068	32.7358
3.24864	32.6974
3.24661	32.781
3.24458	32.7951
3.24255	32.65
3.24052	32.5032
3.2385	32.4762
3.23648	32.4153
3.23446	32.373
3.23244	32.3534
3.23043	32.3201
3.22841	32.2752
3.2264	32.1815
3.2244	32.0523
3.22239	31.9637
3.22039	31.9126
3.21839	31.913
3.2164	31.8432
3.2144	31.7581
3.21241	31.6986
3.21042	31.7525
3.20844	31.7556
3.20645	31.6187
3.20447	31.4682
3.20249	31.3592
3.20051	31.2774
3.19854	31.3306
3.19657	31.3094
3.1946	31.0855
3.19263	30.9078
3.19067	30.8666
3.1887	30.7922
3.18674	30.7109
3.18479	30.5715
3.18283	30.5533
3.18088	30.5175
3.17893	30.324
3.17698	30.1604
3.17504	30.1424
3.17309	30.137
3.17115	30.0093
3.16921	29.8736
3.16728	29.7381
3.16534	29.6862
3.16341	29.6443
3.16148	29.5763
3.15956	29.4259
3.15763	29.3502
3.15571	29.3239
3.15379	29.3189
3.15187	29.4856
3.14996	29.5414
3.14805	29.4573
3.14614	29.3883
3.14423	29.4048
3.14232	29.4483
3.14042	29.5031
3.13852	29.5828
3.13662	29.5739
3.13472	29.5534
3.13283	29.5394
3.13094	29.5033
3.12905	29.5575
3.12716	29.4988
3.12528	29.3218
3.12339	29.2859
3.12151	29.2706
3.11964	29.154
3.11776	29.1143
3.11589	29.1293
3.11401	29.0688
3.11214	28.9596
3.11028	28.876
3.10841	28.8069
3.10655	28.741
3.10469	28.6839
3.10283	28.5877
3.10098	28.4722
3.09912	28.4063
3.09727	28.3049
3.09542	28.2526
3.09358	28.2939
3.09173	28.1932
3.08989	28.1364
3.08805	28.1129
3.08621	28.0563
3.08437	27.9671
3.08254	27.9349
3.08071	27.8732
3.07888	27.834
3.07705	27.7615
3.07523	27.6695
3.0734	27.6175
3.07158	27.5361
3.06977	27.4432
3.06795	27.4202
3.06613	27.3126
3.06432	27.1313
3.06251	27.1588
3.0607	27.3046
3.0589	27.277
3.0571	27.0987
3.05529	27.0257
3.05349	27.0242
3.0517	26.9229
3.0499	26.836
3.04811	26.7419
3.04632	26.6598
3.04453	26.5901
3.04274	26.5574
3.04096	26.4592
3.03918	26.4704
3.0374	26.4367
3.03562	26.2027
3.03384	26.0824
3.03207	26.2066
3.03029	26.1734
3.02852	26.1247
3.02676	26.1642
3.02499	26.1601
3.02323	26.1079
3.02146	26.0449
3.0197	26.1253
3.01795	26.0829
3.01619	25.9361
3.01444	25.8373
3.01269	25.8315
3.01094	25.8184
3.00919	25.7376
3.00744	25.6716
3.0057	25.5574
3.00396	25.4344
3.00222	25.3996
3.00048	25.4576
2.99875	25.3033
2.99701	25.1846
2.99528	25.234
2.99355	25.1693
2.99183	24.9879
2.9901	24.8104
2.98838	24.7208
2.98666	24.7137
2.98494	24.68
2.98322	24.596
2.9815	24.6543
2.97979	24.646
2.97808	24.5276
2.97637	24.5337
2.97466	24.567
2.97295	24.4914
2.97125	24.4145
2.96955	24.3663
2.96785	24.3285
2.96615	24.2789
2.96446	24.2254
2.96276	24.2484
2.96107	24.2609
2.95938	24.1502
2.95769	24.0626
2.95601	24.0714
2.95432	24.0107
2.95264	23.9366
2.95096	23.827
2.94928	23.7102
2.9476	23.7386
2.94593	23.805
2.94425	23.7808
2.94258	23.7902
2.94092	23.7422
2.93925	23.6753
2.93758	23.7068
2.93592	23.6698
2.93426	23.5108
2.9326	23.4441
2.93094	23.5208
2.92928	23.5224
2.92763	23.4058
2.92598	23.3486
2.92433	23.4214
2.92268	23.4795
2.92103	23.4595
2.91939	23.4743
2.91775	23.4782
2.9161	23.3848
2.91447	23.3318
2.91283	23.2962
2.91119	23.1943
2.90956	23.1394
2.90793	23.1342
2.9063	23.1818
2.90467	23.2394
2.90304	23.1931
2.90142	23.1356
2.89979	23.1898
2.89817	23.1602
2.89656	23.1225
2.89494	23.1327
2.89332	23.1318
2.89171	23.0512
2.8901	23.0271
2.88849	22.9982
2.88688	23.0078
2.88527	23.1047
2.88367	23.1376
2.88206	23.1567
2.88046	23.1621
2.87886	22.9716
2.87727	22.751
2.87567	22.8526
2.87408	23.0291
2.87248	23.0437
2.87089	23.0193
2.8693	23.0694
2.86772	23.0953
2.86613	22.9676
2.86455	22.9401
2.86297	22.9513
2.86139	22.9472
2.85981	23.1048
2.85823	23.2076
2.85666	23.1162
2.85508	23.1125
2.85351	23.1119
2.85194	22.9809
2.85038	22.9051
2.84881	22.8061
2.84724	22.6715
2.84568	22.717
2.84412	22.8841
2.84256	22.9087
2.841	22.8271
2.83945	22.8123
2.83789	22.8569
2.83634	22.8245
2.83479	22.8017
2.83324	22.7474
2.83169	22.6794
2.83015	22.5632
2.82861	22.4235
2.82706	22.2829
2.82552	22.2366
2.82398	22.2878
2.82245	22.3547
2.82091	22.4193
2.81938	22.3347
2.81784	22.1796
2.81631	22.0386
2.81479	22.0567
2.81326	22.0568
2.81173	21.8311
2.81021	21.6263
2.80869	21.6115
2.80716	21.5467
2.80565	21.5228
2.80413	21.7103
2.80261	21.5732
2.8011	21.2006
2.79959	20.9948
2.79808	20.9567
2.79657	20.993
2.79506	21.0431
2.79355	21.1215
2.79205	21.0365
2.79055	20.9816
2.78904	20.9245
2.78754	20.6167
2.78605	20.3072
2.78455	20.4319
2.78306	20.7358
2.78156	20.931
2.78007	20.9514
2.77858	20.9836
2.77709	20.826
2.77561	20.6983
2.77412	20.7424
2.77264	20.8194
2.77116	20.9786
2.76968	20.9065
2.7682	20.7604
2.76672	20.7154
2.76524	20.7605
2.76377	20.8897
2.7623	20.845
2.76083	20.6824
2.75936	20.5771
2.75789	20.4525
2.75642	20.6901
2.75496	20.4699
2.7535	19.4819
2.75203	19.3832
2.75057	19.5834
2.74912	19.344
2.74766	18.8962
2.7462	18.3902
2.74475	17.8938
2.7433	17.9993
2.74185	18.2553
2.7404	17.8583
2.73895	16.9364
2.7375	16.1345
2.73606	15.7874
2.73462	15.2185
2.73318	13.5799
2.73174	11.9641
2.7303	11.6625
2.72886	11.6415
2.72742	11.6394
2.72599	11.5968
2.72456	11.1144
2.72313	10.5617
2.7217	9.77054
2.72027	8.25955
2.71884	8.61895
2.71742	11.2185
2.71599	13.2106
2.71457	14.1799
2.71315	14.7276
2.71173	15.4108
2.71032	15.9639
2.7089	16.3756
2.70748	16.9083
2.70607	17.6684
2.70466	18.6278
2.70325	19.8373
2.70184	20.9198
2.70043	21.3767
2.69903	22.2833
2.69762	24.7316
2.69622	27.597
2.69482	29.9599
2.69342	31.6227
2.69202	32.383
2.69062	33.2188
2.68923	34.419
2.68783	35.6084
2.68644	36.6361
2.68505	37.4643
2.68366	38.3638
2.68227	38.9214
2.68089	39.5666
2.6795	40.6656
2.67812	41.4456
2.67673	42.2644
2.67535	42.4816
2.67397	42.521
2.6726	43.0331
2.67122	44.5726
2.66984	44.8745
2.66847	44.1981
2.6671	45.1587
2.66572	45.5001
2.66435	44.9035
2.66299	44.094
2.66162	44.1497
2.66025	44.2729
2.65889	44.1044
2.65753	43.6368
2.65616	43.7707
2.65481	43.7358
2.65345	43.9343
2.65209	44.0188
2.65073	43.4636
2.64938	43.1001
2.64803	43.2402
2.64667	43.4925
2.64532	43.51
2.64397	43.2869
2.64263	43.4304
2.64128	43.5071
2.63994	43.5215
2.63859	43.5868
2.63725	43.7312
2.63591	43.6162
2.63457	43.7232
2.63323	43.7225
2.6319	44.1082
2.63056	44.8182
2.62923	44.1441
2.62789	43.8843
2.62656	44.2437
2.62523	43.6547
2.6239	43.279
2.62258	43.3199
2.62125	44.0595
2.61993	44.1647
2.6186	43.6197
2.61728	44.0279
2.61596	43.7419
2.61464	43.1868
2.61332	43.2989
2.61201	43.1846
2.61069	43.3217
2.60938	43.3198
2.60807	43.1009
2.60675	43.3921
2.60544	43.6235
2.60414	42.8819
2.60283	42.4724
2.60152	42.3305
2.60022	42.0771
2.59891	41.771
2.59761	41.8976
2.59631	42.915
2.59501	44.4373
2.59371	43.5419
2.59242	42.1204
2.59112	41.7231
2.58983	41.6784
2.58853	41.7037
2.58724	41.7504
2.58595	41.3448
2.58466	41.4564
2.58338	41.3785
2.58209	40.9572
2.5808	40.8488
2.57952	40.4016
2.57824	40.2994
2.57695	40.3074
2.57567	40.1131
2.5744	40.5006
2.57312	40.7864
2.57184	40.2449
2.57057	40.3034
2.56929	40.34
2.56802	39.9038
2.56675	39.7028
2.56548	40.0072
2.56421	40.5251
2.56294	40.554
2.56168	40.5052
2.56041	40.1452
2.55915	39.6102
2.55789	39.4062
2.55662	39.2694
2.55536	39.2113
2.5541	39.3789
2.55285	39.7165
2.55159	39.8409
2.55034	39.8196
2.54908	40.0121
2.54783	40.1682
2.54658	40.0604
2.54533	39.9746
2.54408	40.0075
2.54283	39.9645
2.54159	39.6412
2.54034	39.284
2.5391	39.1516
2.53785	39.0659
2.53661	39.168
2.53537	39.2005
2.53413	39.0798
2.53289	39.0453
2.53166	38.8546
2.53042	38.6575
2.52919	38.5283
2.52795	38.505
2.52672	38.5704
2.52549	38.6396
2.52426	38.6912
2.52303	38.637
2.52181	38.4689
2.52058	38.3433
2.51936	38.182
2.51813	38.0489
2.51691	37.9241
2.51569	37.8628
2.51447	37.8111
2.51325	37.8459
2.51203	38.0065
2.51082	38.203
2.5096	38.1558
2.50839	37.9895
2.50717	37.969
2.50596	38.0254
2.50475	38.0604
2.50354	37.9141
2.50233	37.6008
2.50113	37.3699
2.49992	37.2693
2.49872	37.2967
2.49751	37.3383
2.49631	37.4195
2.49511	37.5438
2.49391	37.7097
2.49271	37.9629
2.49151	38.1691
2.49031	38.2749
2.48912	38.2708
2.48792	38.2774
2.48673	38.2428
2.48554	38.2652
2.48435	38.2305
2.48316	38.148
2.48197	38.1108
2.48078	38.1324
2.4796	38.1316
2.47841	37.9306
2.47723	37.6529
2.47604	37.4321
2.47486	37.2009
2.47368	36.9226
2.4725	36.7031
2.47132	36.4734
2.47014	35.9987
2.46897	35.6269
2.46779	35.5834
2.46662	35.5394
2.46545	35.466
2.46427	35.5157
2.4631	35.4666
2.46193	35.631
2.46077	36.0664
2.4596	36.5902
2.45843	36.8402
2.45727	36.7476
2.4561	36.6399
2.45494	36.7393
2.45378	36.8982
2.45262	37.078
2.45146	37.0841
2.4503	37.0771
2.44914	37.1937
2.44799	37.2305
2.44683	37.2388
2.44568	37.2406
2.44452	37.2616
2.44337	37.2799
2.44222	37.1762
2.44107	37.0175
2.43992	37.0302
2.43877	37.1097
2.43763	37.1507
2.43648	37.0589
2.43534	36.9196
2.43419	36.8182
2.43305	36.9555
2.43191	37.1584
2.43077	37.2609
2.42963	37.2056
2.42849	36.9527
2.42736	36.6649
2.42622	36.5376
2.42509	36.7887
2.42395	37.3035
2.42282	37.7644
2.42169	38.0091
2.42056	38.0941
2.41943	38.2094
2.4183	38.3767
2.41717	38.4012
2.41605	38.214
2.41492	38.1347
2.4138	38.1846
2.41267	38.2652
2.41155	38.3229
2.41043	38.42
2.40931	38.5427
2.40819	38.3955
2.40707	38.1352
2.40595	37.9237
2.40484	37.7936
2.40372	37.628
2.40261	37.2413
2.4015	36.7499
2.40039	36.1592
2.39928	35.4752
2.39817	34.7365
2.39706	33.999
2.39595	33.6091
2.39484	33.4428
2.39374	33.1488
2.39263	32.7201
2.39153	32.4331
2.39043	32.5452
2.38932	32.9841
2.38822	33.3538
2.38712	33.4226
2.38603	33.4217
2.38493	33.3926
2.38383	33.4666
2.38274	33.6744
2.38164	33.9296
2.38055	34.1489
2.37946	34.4207
2.37836	34.7349
2.37727	34.9748
2.37618	35.0935
2.3751	35.212
2.37401	35.4459
2.37292	35.8032
2.37184	36.3131
2.37075	36.6214
2.36967	36.8378
2.36859	37.1196
2.3675	37.3263
2.36642	37.4753
2.36534	37.6042
2.36427	37.8799
2.36319	38.0675
2.36211	38.0225
2.36104	38.0805
2.35996	38.0187
2.35889	37.8482
2.35781	37.7456
2.35674	37.818
2.35567	37.8724
2.3546	37.8862
2.35353	37.9418
2.35247	38.1507
2.3514	38.3684
2.35033	38.4102
2.34927	38.4034
2.3482	38.4019
2.34714	38.3631
2.34608	38.2135
2.34502	38.1367
2.34396	38.0619
2.3429	37.9234
2.34184	37.809
2.34078	37.8767
2.33973	37.816
2.33867	37.5763
2.33762	37.3925
2.33656	37.1829
2.33551	36.8771
2.33446	36.6696
2.33341	36.4248
2.33236	36.1972
2.33131	35.9484
2.33026	35.6557
2.32922	35.0912
2.32817	34.2075
2.32712	33.2836
2.32608	32.4282
2.32504	31.6886
2.324	31.1524
2.32295	30.9616
2.32191	30.9218
2.32087	30.6893
2.31984	30.361
2.3188	30.035
2.31776	29.0326
2.31673	27.468
2.31569	26.0881
2.31466	25.1823
2.31362	24.6239
2.31259	24.5267
2.31156	24.9398
2.31053	25.247
2.3095	25.7458
2.30847	26.4116
2.30745	27.0799
2.30642	27.8321
2.3054	28.6438
2.30437	29.5833
2.30335	30.4176
2.30232	31.1204
2.3013	31.75
2.30028	32.3437
2.29926	32.703
2.29824	32.977
2.29722	33.3436
2.29621	33.4222
2.29519	32.9094
2.29417	32.024
2.29316	31.0224
2.29215	30.0441
2.29113	29.419
2.29012	29.2137
2.28911	29.6229
2.2881	30.4589
2.28709	31.3942
2.28608	32.394
2.28507	33.3106
2.28407	34.2049
2.28306	35.0831
2.28206	35.6785
2.28105	36.0593
2.28005	36.5543
2.27905	37.1833
2.27805	37.5275
2.27705	37.7874
2.27605	38.0145
2.27505	38.2859
2.27405	38.4887
2.27305	38.6401
2.27206	38.8494
2.27106	39.101
2.27007	39.283
2.26907	39.5029
2.26808	39.7124
2.26709	39.8242
2.2661	40.1466
2.26511	40.5354
2.26412	40.6545
2.26313	40.9098
2.26214	41.1906
2.26116	41.3667
2.26017	41.5928
2.25919	41.7883
2.2582	41.9475
2.25722	41.9829
2.25624	42.0225
2.25526	42.0573
2.25428	42.1646
2.2533	42.3902
2.25232	42.4114
2.25134	42.5024
2.25036	42.6792
2.24939	42.6929
2.24841	42.7405
2.24744	42.8767
2.24646	42.9253
2.24549	42.7872
2.24452	42.8192
2.24355	42.9651
2.24257	43.1054
2.24161	42.9826
2.24064	42.7565
2.23967	42.8855
2.2387	43.1037
2.23774	42.9509
2.23677	43.0079
2.23581	43.3385
2.23484	43.3415
2.23388	43.1163
2.23292	43.1602
2.23196	43.2399
2.231	43.2592
2.23004	43.4724
2.22908	43.6364
2.22812	43.7778
2.22716	44.0063
2.22621	44.152
2.22525	44.2827
2.2243	44.5178
2.22334	44.7307
2.22239	44.9198
2.22144	44.9567
2.22049	44.9862
2.21953	45.2701
2.21859	45.4748
2.21764	45.4442
2.21669	45.3509
2.21574	45.4787
2.21479	45.7013
2.21385	45.6028
2.2129	45.563
2.21196	45.556
2.21102	45.6549
2.21007	45.6466
2.20913	45.7446
2.20819	45.9034
2.20725	45.9608
2.20631	46.0763
2.20537	46.1002
2.20444	46.1258
2.2035	46.1957
2.20256	46.0461
2.20163	45.9883
2.20069	46.1352
2.19976	46.2551
2.19883	46.175
2.19789	46.139
2.19696	46.2601
2.19603	46.3016
2.1951	46.2963
2.19417	46.4846
2.19325	46.6357
2.19232	46.535
2.19139	46.4929
2.19047	46.5913
2.18954	46.7141
2.18862	46.613
2.18769	46.5639
2.18677	46.6079
2.18585	46.5497
2.18493	46.5167
2.18401	46.5615
2.18309	46.5447
2.18217	46.5386
2.18125	46.6165
2.18033	46.742
2.17942	46.8577
2.1785	46.8152
2.17759	46.7047
2.17667	46.7805
2.17576	46.7714
2.17485	46.6031
2.17393	46.5663
2.17302	46.6084
2.17211	46.7993
2.1712	46.9534
2.17029	46.933
2.16939	46.9811
2.16848	46.9842
2.16757	46.9936
2.16667	47.0165
2.16576	47.023
2.16486	47.1933
2.16395	47.3906
2.16305	47.1884
2.16215	47.1299
2.16125	47.3351
2.16035	47.4379
2.15945	47.3543
2.15855	47.1849
2.15765	47.3247
2.15675	47.4265
2.15586	47.3757
2.15496	47.3227
2.15406	47.4621
2.15317	47.5665
2.15228	47.655
2.15138	47.706
2.15049	47.6987
2.1496	47.6062
2.14871	47.5025
2.14782	47.431
2.14693	47.3911
2.14604	47.4625
2.14515	47.7304
2.14427	47.7819
2.14338	47.5631
2.14249	47.5555
2.14161	47.795
2.14072	47.6665
2.13984	47.409
2.13896	47.3185
2.13808	47.5598
2.13719	47.7412
2.13631	47.7307
2.13543	47.7002
2.13455	47.5699
2.13368	47.6411
2.1328	47.7118
2.13192	47.7865
2.13105	47.6716
2.13017	47.5946
2.1293	47.6161
2.12842	47.7153
2.12755	47.811
2.12668	47.7206
2.1258	47.6738
2.12493	47.8398
2.12406	48.1457
2.12319	48.1969
2.12232	48.2228
2.12145	48.4077
2.12059	48.3225
2.11972	48.2497
2.11885	48.2948
2.11799	48.3462
2.11712	48.3484
2.11626	48.1841
2.1154	48.19
2.11453	48.2937
2.11367	48.2966
2.11281	48.411
2.11195	48.5768
2.11109	48.7281
2.11023	48.7528
2.10937	48.7082
2.10851	48.7404
2.10766	48.7843
2.1068	48.9446
2.10594	49.2046
2.10509	49.3078
2.10423	49.148
2.10338	49.077
2.10253	49.2455
2.10168	49.1822
2.10082	48.9897
2.09997	49.0578
2.09912	49.1661
2.09827	49.1642
2.09742	49.22
2.09658	49.1688
2.09573	49.1943
2.09488	49.3477
2.09404	49.3316
2.09319	49.2244
2.09235	49.1717
2.0915	49.3094
2.09066	49.2727
2.08982	49.3655
2.08897	49.4988
2.08813	49.343
2.08729	49.3318
2.08645	49.5165
2.08561	49.8392
2.08477	49.6102
2.08394	49.2436
2.0831	49.1939
2.08226	49.3334
2.08143	49.3356
2.08059	49.1292
2.07976	49.4432
2.07892	49.6338
2.07809	49.7087
2.07726	49.6427
2.07643	49.4178
2.07559	49.6835
2.07476	49.5823
2.07393	49.5463
2.0731	49.893
2.07228	49.9363
2.07145	50.0094
2.07062	50.2338
2.06979	50.2617
2.06897	50.4023
2.06814	50.4019
2.06732	50.3136
2.06649	50.4514
2.06567	50.6525
2.06485	50.7264
2.06403	50.679
2.0632	50.5745
2.06238	50.5442
2.06156	50.5169
2.06074	50.6138
2.05993	50.8063
2.05911	50.7878
2.05829	50.7912
2.05747	50.9445
2.05666	51.1781
2.05584	51.117
2.05503	50.9286
2.05421	50.9366
2.0534	50.9622
2.05259	50.8679
2.05177	50.8958
2.05096	50.9188
2.05015	50.9027
2.04934	50.9175
2.04853	50.9935
2.04772	51.036
2.04691	50.9145
2.04611	50.8053
2.0453	50.7485
2.04449	50.8764
2.04369	51.093
2.04288	51.1687
2.04208	51.2856
2.04127	51.1324
2.04047	50.9789
2.03967	51.1114
2.03886	51.2243
2.03806	51.3241
2.03726	51.3484
2.03646	51.3687
2.03566	51.3971
2.03486	51.5544
2.03407	51.4796
2.03327	51.3157
2.03247	51.2475
2.03167	51.1768
2.03088	51.2579
2.03008	51.3742
2.02929	51.4203
2.0285	51.3838
2.0277	51.3564
2.02691	51.2983
2.02612	51.4055
2.02533	51.3807
2.02453	51.5292
2.02374	51.5601
2.02295	51.4678
2.02217	51.6519
2.02138	51.514
2.02059	51.2921
2.0198	51.3508
2.01902	51.4455
2.01823	51.3944
2.01744	51.3906
2.01666	51.3325
2.01588	51.1937
2.01509	51.1644
2.01431	51.2287
2.01353	51.3643
2.01275	51.3088
2.01196	51.3257
2.01118	51.5267
2.0104	51.4928
2.00963	51.6076
2.00885	51.569
2.00807	51.4572
2.00729	51.6648
2.00651	51.7494
2.00574	51.4686
2.00496	51.4827
2.00419	51.6936
2.00341	51.77
2.00264	51.7224
2.00187	51.6398
2.00109	51.5977
2.00032	51.86
