Name: Ferroaxinite Ca_2Fe^2+Al_2BSi_4O_15(OH)
Type: Mineral
Class: Silicates
Subclass: Cyclosilicates
Particle Size: 0-45um
Sample No.: CS-4A
Owner: JPL
Wavelength range: IR
Origin: Mexico, Baja California Norte, Los Gavelontos
Collected by Ward's
Description: 





Measurement: Hemispherical reflectance
First Column: X
Second Column: Y
X Units:  Wavelength (micrometers)
Y Units:  Reflectance (percent)
First X Value: 15.3853
Last X Value: 2.00032
Number of X Values: 2256
Additional information: cs04aa.txt
 
15.3853	1.70198
15.3397	1.97139
15.2945	2.10841
15.2495	2.06198
15.2048	2.16264
15.1603	2.57096
15.1161	2.87678
15.0722	2.97451
15.0285	3.02397
14.9851	3.00631
14.9419	2.86765
14.8989	2.60283
14.8563	2.35151
14.8138	2.03079
14.7716	1.91719
14.7296	2.0473
14.6879	2.2612
14.6464	2.3957
14.6052	2.43853
14.5641	2.67562
14.5233	2.96647
14.4828	3.30185
14.4424	3.56836
14.4023	3.97085
14.3624	4.31263
14.3227	4.68713
14.2833	5.28999
14.244	5.84037
14.205	6.03324
14.1662	6.36388
14.1276	6.59281
14.0892	6.4645
14.051	6.60298
14.0131	7.06544
13.9753	7.21629
13.9377	7.39632
13.9004	7.65044
13.8632	7.90062
13.8262	7.99297
13.7895	8.13432
13.7529	8.2705
13.7165	8.43324
13.6803	8.5431
13.6443	8.60617
13.6085	8.5733
13.5729	8.61859
13.5374	8.73299
13.5022	8.81862
13.4671	8.77771
13.4322	8.75872
13.3975	8.81305
13.363	8.82351
13.3286	8.6942
13.2944	8.43581
13.2604	8.2244
13.2266	8.06118
13.193	7.92703
13.1595	7.97989
13.1262	7.8686
13.093	7.64859
13.06	7.30304
13.0272	7.01882
12.9946	6.69837
12.9621	6.41943
12.9298	6.26501
12.8976	6.14033
12.8656	5.90781
12.8337	5.66028
12.8021	5.49081
12.7705	5.37531
12.7391	5.33179
12.7079	5.41795
12.6769	5.83082
12.6459	6.24257
12.6152	6.48665
12.5845	6.75901
12.5541	6.99795
12.5238	7.17244
12.4936	7.24505
12.4635	7.22299
12.4337	7.26129
12.4039	7.26797
12.3743	7.13812
12.3448	6.96075
12.3155	6.84385
12.2863	6.79596
12.2573	6.75016
12.2284	6.64326
12.1996	6.44673
12.171	6.29862
12.1425	6.16442
12.1141	6.18783
12.0859	6.22252
12.0578	6.01237
12.0298	5.86076
12.0019	5.93457
11.9742	5.96432
11.9466	6.13731
11.9192	6.40251
11.8918	6.51095
11.8646	6.59772
11.8375	6.82133
11.8106	7.1382
11.7837	7.38278
11.757	7.47309
11.7304	7.41449
11.7039	7.54683
11.6776	7.68068
11.6513	7.57988
11.6252	7.61038
11.5992	7.89302
11.5733	8.10867
11.5475	8.22501
11.5219	8.52876
11.4963	8.78949
11.4709	8.95869
11.4455	9.18723
11.4203	9.43087
11.3952	9.68345
11.3702	9.88199
11.3454	9.85266
11.3206	9.80279
11.2959	9.93268
11.2714	10.0515
11.2469	10.1244
11.2226	10.2306
11.1983	10.0274
11.1742	9.66997
11.1502	9.32236
11.1263	8.85171
11.1024	8.07536
11.0787	7.28888
11.0551	6.7877
11.0316	6.53866
11.0081	6.64137
10.9848	6.92358
10.9616	7.2141
10.9385	7.6354
10.9154	8.21062
10.8925	8.6268
10.8697	8.94793
10.8469	9.16573
10.8243	9.43073
10.8017	9.66245
10.7793	9.75683
10.7569	9.96619
10.7346	10.3226
10.7125	10.5995
10.6904	11.056
10.6684	11.6789
10.6465	12.0394
10.6247	12.3283
10.6029	12.5907
10.5813	12.7307
10.5597	12.7387
10.5383	12.645
10.5169	12.3404
10.4956	11.734
10.4744	11.0669
10.4533	10.3438
10.4323	9.48431
10.4113	8.62999
10.3904	7.99457
10.3697	7.47214
10.349	6.93969
10.3284	6.41688
10.3078	5.82886
10.2874	5.41387
10.267	5.07029
10.2467	4.80618
10.2265	4.58533
10.2064	4.44343
10.1863	4.54106
10.1663	4.72079
10.1464	4.76126
10.1266	4.78649
10.1069	4.82118
10.0872	4.76441
10.0676	4.56227
10.0481	4.46415
10.0287	4.45821
10.0093	4.67143
9.99005	5.22041
9.97084	5.60198
9.95169	5.6562
9.93263	5.71748
9.91364	5.55033
9.89472	5.25109
9.87587	4.95056
9.8571	4.73984
9.83839	4.48768
9.81976	4.09784
9.80119	3.64803
9.78271	3.45636
9.76428	3.43637
9.74592	3.57584
9.72764	3.87001
9.70943	4.42126
9.69128	4.91113
9.6732	5.43644
9.65518	6.21594
9.63724	6.86175
9.61935	7.50445
9.60155	8.13577
9.5838	8.53318
9.56611	8.79232
9.5485	8.98259
9.53094	9.17884
9.51345	9.11363
9.49604	9.01535
9.47867	8.88324
9.46137	8.76458
9.44414	8.89283
9.42697	9.24212
9.40986	9.67943
9.39281	10.4012
9.37583	11.0882
9.35891	11.4646
9.34204	11.6256
9.32524	11.7819
9.3085	11.8794
9.29182	11.6521
9.27519	11.4156
9.25863	11.25
9.24213	11.1956
9.22568	11.2863
9.2093	11.408
9.19297	11.6402
9.17669	12.0639
9.16048	12.4963
9.14433	12.6355
9.12823	12.5313
9.11218	12.4148
9.0962	12.1535
9.08027	11.7744
9.06439	11.2774
9.04858	10.6701
9.03281	10.0737
9.0171	9.58927
9.00145	9.10705
8.98585	8.64792
8.9703	8.34759
8.9548	8.00349
8.93937	7.63831
8.92398	7.37562
8.90865	7.01902
8.89337	6.71788
8.87814	6.42016
8.86296	6.18163
8.84784	5.84664
8.83277	5.5726
8.81774	5.43791
8.80277	5.36309
8.78786	5.28266
8.77298	5.29863
8.75816	5.30099
8.7434	5.33266
8.72868	5.31375
8.714	5.13728
8.69938	4.9158
8.68481	4.69233
8.67029	4.41853
8.65581	4.05075
8.64139	3.58387
8.62701	3.13749
8.61268	2.819
8.5984	2.38188
8.58416	2.059
8.56997	1.93639
8.55583	1.82104
8.54174	1.53215
8.52769	1.34352
8.51368	1.26831
8.49973	1.23125
8.48582	1.04305
8.47195	0.791493
8.45813	0.744194
8.44436	0.693718
8.43062	0.611442
8.41693	0.595256
8.4033	0.614266
8.3897	0.663799
8.37614	0.743271
8.36264	0.67708
8.34917	0.687374
8.33574	0.718154
8.32236	0.66429
8.30903	0.683993
8.29573	0.697098
8.28248	0.699252
8.26927	0.688372
8.2561	0.707478
8.24298	0.710224
8.2299	0.746516
8.21685	0.800313
8.20385	0.836118
8.19089	0.929864
8.17797	1.07421
8.16509	1.068
8.15225	1.13407
8.13946	1.21231
8.1267	1.28708
8.11398	1.37231
8.10131	1.45767
8.08867	1.54631
8.07606	1.70909
8.0635	1.65573
8.05099	1.58813
8.0385	1.62002
8.02606	1.92585
8.01366	2.13042
8.00129	2.18414
7.98896	2.23969
7.97667	2.46902
7.96442	2.61908
7.9522	2.70451
7.94002	2.80249
7.92788	3.03011
7.91578	3.16454
7.90371	3.19942
7.89168	3.31954
7.87969	3.52974
7.86773	3.69971
7.85581	3.85538
7.84392	4.05042
7.83207	4.20529
7.82026	4.32822
7.80849	4.61696
7.79674	4.81422
7.78503	4.90751
7.77337	5.03104
7.76173	5.24119
7.75012	5.40418
7.73856	5.59339
7.72703	5.8556
7.71553	6.10701
7.70406	6.35592
7.69263	6.49201
7.68123	6.65372
7.66987	6.88586
7.65855	6.9842
7.64725	7.11485
7.63598	7.37065
7.62475	7.50479
7.61356	7.69654
7.60239	8.06483
7.59126	8.2846
7.58017	8.34642
7.5691	8.4848
7.55806	8.7323
7.54707	8.98202
7.5361	9.20556
7.52516	9.46477
7.51425	9.69626
7.50338	9.89842
7.49253	10.1539
7.48172	10.3408
7.47094	10.5116
7.46019	10.7509
7.44947	10.9831
7.43879	11.1511
7.42813	11.1776
7.4175	11.2882
7.4069	11.5052
7.39634	11.7482
7.3858	11.9835
7.37529	12.1093
7.36482	12.1329
7.35437	12.2956
7.34396	12.5526
7.33357	12.6679
7.32321	12.7599
7.31288	12.8715
7.30258	12.9758
7.29231	13.0698
7.28207	13.2878
7.27185	13.5177
7.26167	13.6117
7.25152	13.7305
7.24139	13.9072
7.23129	14.0489
7.22122	14.1951
7.21117	14.4333
7.20116	14.5473
7.19117	14.5597
7.18121	14.7085
7.17128	14.9466
7.16137	15.0299
7.1515	15.1218
7.14164	15.2185
7.13182	15.3171
7.12203	15.4771
7.11225	15.5128
7.10251	15.544
7.0928	15.6125
7.08311	15.7176
7.07344	15.9329
7.06381	16.1156
7.0542	16.4156
7.04461	16.7146
7.03506	16.5409
7.02552	16.3757
7.01601	16.4012
7.00653	16.4975
6.99708	16.6205
6.98765	16.6578
6.97824	16.6723
6.96886	16.9525
6.95951	17.2253
6.95018	16.9716
6.94087	16.8487
6.9316	16.9188
6.92234	17.0264
6.91311	17.1755
6.90391	17.2132
6.89473	17.195
6.88557	17.3079
6.87644	17.5455
6.86733	18.2828
6.85824	18.2795
6.84918	17.7049
6.84015	17.6308
6.83114	17.9142
6.82215	17.9851
6.81319	17.829
6.80424	17.9319
6.79532	18.413
6.78643	18.5292
6.77756	18.2277
6.76871	18.2492
6.75989	18.211
6.75109	18.2269
6.74231	18.4174
6.73355	18.6569
6.72482	18.8281
6.71611	19.0689
6.70742	19.1097
6.69875	18.9179
6.69011	19.1734
6.68149	19.5033
6.67289	19.4163
6.66431	19.2401
6.65576	19.3131
6.64722	20.0371
6.63871	20.9137
6.63022	20.6413
6.62175	20.1221
6.61331	20.0419
6.60488	20.1446
6.59648	20.5884
6.5881	20.7992
6.57974	21.1808
6.5714	21.6342
6.56308	21.3579
6.55478	21.3082
6.54651	21.2256
6.53825	21.1703
6.53001	21.3182
6.5218	21.6252
6.51361	21.4238
6.50544	21.652
6.49729	22.6884
6.48915	22.8578
6.48104	22.3346
6.47295	22.0898
6.46488	21.8621
6.45683	21.9446
6.4488	22.0397
6.44079	22.1256
6.4328	22.4319
6.42482	22.8624
6.41687	23.8845
6.40894	23.6272
6.40103	22.5139
6.39314	22.2121
6.38526	22.2294
6.37741	22.5119
6.36957	22.8325
6.36176	22.6733
6.35396	22.9796
6.34618	23.7081
6.33843	23.515
6.33069	23.0932
6.32297	23.0686
6.31527	23.1049
6.30758	23.085
6.29992	23.066
6.29227	23.1558
6.28465	23.1703
6.27704	23.2157
6.26945	23.2374
6.26188	23.2281
6.25432	23.3009
6.24679	23.4345
6.23927	23.4459
6.23177	23.5568
6.22429	23.7242
6.21683	23.81
6.20938	23.9418
6.20195	24.0559
6.19454	24.3376
6.18715	25.0208
6.17978	24.8244
6.17242	24.4309
6.16508	24.6752
6.15776	24.8818
6.15045	24.7963
6.14317	24.9117
6.1359	24.9093
6.12864	24.8657
6.12141	25.381
6.11419	26.1492
6.10699	25.6967
6.0998	25.1452
6.09263	25.162
6.08549	25.4257
6.07835	26.0475
6.07123	26.2887
6.06413	25.8954
6.05705	26.4575
6.04998	27.8532
6.04293	27.0265
6.0359	25.9311
6.02888	25.7497
6.02187	25.8785
6.01489	26.0156
6.00792	25.7066
6.00096	25.555
5.99403	25.9317
5.98711	25.9504
5.9802	25.4555
5.97331	25.4266
5.96644	25.4586
5.95958	24.9453
5.95274	24.7857
5.94591	24.9643
5.9391	25.7099
5.9323	25.2117
5.92552	24.1595
5.91876	23.7176
5.91201	23.256
5.90528	23.0859
5.89856	23.529
5.89186	23.1461
5.88517	22.9483
5.8785	22.5401
5.87184	21.2602
5.8652	20.8265
5.85857	20.2075
5.85196	19.4901
5.84536	19.0337
5.83878	18.8223
5.83221	18.7554
5.82566	18.7827
5.81912	18.4092
5.81259	17.554
5.80608	17.0977
5.79959	16.8428
5.79311	16.573
5.78665	16.3569
5.78019	16.2352
5.77376	16.4021
5.76734	16.73
5.76093	16.2913
5.75453	16.0428
5.74815	16.2337
5.74179	16.1422
5.73543	16.1227
5.7291	16.3472
5.72277	16.7275
5.71646	17.0941
5.71017	17.4835
5.70389	17.5565
5.69762	17.8606
5.69136	18.3745
5.68513	18.7154
5.6789	19.2393
5.67268	19.6568
5.66648	19.9134
5.6603	20.415
5.65413	20.9578
5.64797	21.6022
5.64182	22.2879
5.63569	22.3007
5.62957	22.3284
5.62347	22.5446
5.61737	22.7405
5.61129	22.897
5.60522	23.0929
5.59917	23.1334
5.59313	23.1434
5.5871	23.46
5.58109	23.8974
5.57509	23.9611
5.5691	23.9077
5.56312	24.1527
5.55716	24.4715
5.55121	24.7328
5.54528	24.8503
5.53935	24.958
5.53344	25.0924
5.52754	25.2636
5.52166	25.3689
5.51578	25.3298
5.50992	25.2174
5.50407	25.2614
5.49823	25.3069
5.49241	25.2888
5.4866	25.2946
5.4808	25.4251
5.47501	25.3632
5.46923	25.3798
5.46347	25.4504
5.45772	25.2991
5.45198	25.2105
5.44625	25.2533
5.44054	25.2504
5.43484	25.2373
5.42914	25.4256
5.42347	25.8445
5.4178	25.834
5.41214	25.746
5.4065	25.8277
5.40087	25.9144
5.39525	26.0493
5.38964	26.1029
5.38404	26.1713
5.37846	26.3033
5.37288	26.4231
5.36732	26.4623
5.36177	26.5502
5.35623	26.7282
5.35071	26.8966
5.34519	26.8434
5.33968	26.8498
5.33419	26.9831
5.32871	27.1094
5.32324	27.3045
5.31778	27.4222
5.31233	27.6087
5.30689	27.8067
5.30147	27.9469
5.29605	28.2187
5.29065	28.4632
5.28525	28.498
5.27987	28.5871
5.2745	28.6595
5.26914	28.682
5.26379	28.7451
5.25845	28.8352
5.25312	28.7726
5.24781	28.789
5.2425	28.8752
5.23721	28.8751
5.23192	28.8195
5.22665	28.8137
5.22138	28.867
5.21613	28.9843
5.21089	28.993
5.20566	28.9293
5.20044	28.979
5.19522	28.9162
5.19002	28.8803
5.18483	28.9074
5.17965	28.9497
5.17448	29.0162
5.16933	29.0759
5.16418	29.1273
5.15904	29.1411
5.15391	29.2373
5.14879	29.4447
5.14368	29.5684
5.13859	29.6072
5.1335	29.7818
5.12842	29.9611
5.12335	30.1189
5.1183	30.3074
5.11325	30.4534
5.10821	30.5902
5.10318	30.7947
5.09817	30.9455
5.09316	31.0678
5.08816	31.1999
5.08317	31.3611
5.07819	31.4574
5.07322	31.5639
5.06826	31.6388
5.06331	31.7939
5.05837	31.9209
5.05344	32.0199
5.04852	32.1818
5.04361	32.3102
5.03871	32.4582
5.03382	32.632
5.02894	32.8175
5.02406	33.0596
5.0192	33.2557
5.01435	33.3181
5.0095	33.4641
5.00467	33.6541
4.99984	33.7469
4.99502	33.8054
4.99021	33.9088
4.98542	34.0454
4.98063	34.196
4.97585	34.2925
4.97108	34.381
4.96632	34.5447
4.96156	34.7418
4.95682	34.9352
4.95209	35.0827
4.94736	35.1535
4.94264	35.2106
4.93794	35.4037
4.93324	35.6846
4.92855	35.8876
4.92387	36.0137
4.9192	36.14
4.91453	36.2644
4.90988	36.4702
4.90524	36.6737
4.9006	36.9032
4.89597	37.1426
4.89135	37.3623
4.88674	37.6076
4.88214	37.8923
4.87755	38.1084
4.87296	38.297
4.86839	38.4916
4.86382	38.6558
4.85926	38.8218
4.85471	39.0787
4.85017	39.2937
4.84564	39.5141
4.84111	39.688
4.8366	39.7982
4.83209	39.9106
4.82759	40.0721
4.8231	40.2703
4.81862	40.4606
4.81415	40.619
4.80968	40.7467
4.80522	40.9297
4.80077	41.1148
4.79633	41.3001
4.7919	41.5374
4.78747	41.767
4.78306	42.0181
4.77865	42.2656
4.77425	42.5033
4.76986	42.7821
4.76547	43.012
4.7611	43.1804
4.75673	43.4017
4.75237	43.6045
4.74802	43.8033
4.74367	43.9994
4.73934	44.2159
4.73501	44.456
4.73069	44.6201
4.72638	44.7346
4.72207	44.9308
4.71777	45.1061
4.71348	45.222
4.7092	45.3821
4.70493	45.6567
4.70066	45.9306
4.69641	46.0582
4.69216	46.2284
4.68791	46.5164
4.68368	46.8401
4.67945	47.1135
4.67523	47.3526
4.67102	47.6382
4.66682	47.9483
4.66262	48.2236
4.65843	48.418
4.65425	48.6545
4.65007	48.9332
4.64591	49.1248
4.64175	49.3692
4.6376	49.6691
4.63345	49.9804
4.62932	50.2643
4.62519	50.4986
4.62106	50.7414
4.61695	50.909
4.61284	51.0991
4.60874	51.3719
4.60465	51.6178
4.60056	51.7528
4.59648	51.8489
4.59241	51.9157
4.58835	51.9875
4.58429	52.1505
4.58024	52.239
4.5762	52.2482
4.57216	52.2218
4.56814	52.253
4.56411	52.2928
4.5601	52.271
4.55609	52.275
4.55209	52.3751
4.5481	52.4501
4.54411	52.4347
4.54013	52.419
4.53616	52.4448
4.5322	52.5035
4.52824	52.4997
4.52429	52.4841
4.52034	52.4749
4.51641	52.43
4.51247	52.4447
4.50855	52.4957
4.50463	52.5124
4.50072	52.5937
4.49682	52.729
4.49292	52.8976
4.48903	53.0336
4.48515	53.2632
4.48127	53.5533
4.4774	53.8506
4.47354	54.0959
4.46968	54.2657
4.46584	54.4893
4.46199	54.78
4.45815	54.9456
4.45432	55.0973
4.4505	55.3357
4.44668	55.5646
4.44287	55.7417
4.43907	55.9895
4.43527	56.2937
4.43148	56.5899
4.4277	56.7989
4.42392	57.0196
4.42015	57.2038
4.41638	57.3381
4.41262	57.4857
4.40887	57.7396
4.40513	57.959
4.40139	58.1502
4.39765	58.4539
4.39393	58.7261
4.39021	58.941
4.38649	59.1482
4.38278	59.2877
4.37908	59.4066
4.37539	59.6601
4.3717	59.901
4.36801	60.0462
4.36434	60.2182
4.36067	60.4421
4.357	60.6394
4.35335	60.7643
4.34969	60.854
4.34605	60.9029
4.34241	60.9897
4.33877	61.1136
4.33514	61.2054
4.33152	61.302
4.32791	61.466
4.3243	61.5766
4.32069	61.7351
4.3171	61.8302
4.31351	61.8895
4.30992	61.9808
4.30634	61.9902
4.30277	62.0198
4.2992	62.2163
4.29564	62.3877
4.29208	62.491
4.28853	62.5529
4.28499	62.6255
4.28145	62.6668
4.27792	62.6483
4.27439	62.6414
4.27087	62.7354
4.26735	62.8151
4.26384	62.8258
4.26034	62.7812
4.25684	62.7969
4.25335	62.816
4.24986	62.906
4.24638	63.0364
4.24291	63.2078
4.23944	63.3578
4.23598	63.4187
4.23252	63.4183
4.22906	63.4257
4.22562	63.3733
4.22218	63.3226
4.21874	63.3443
4.21531	63.3417
4.21189	63.3278
4.20847	63.3118
4.20506	63.2367
4.20165	63.217
4.19825	63.2367
4.19485	63.2405
4.19146	63.2598
4.18807	63.3595
4.18469	63.4288
4.18132	63.4318
4.17795	63.4046
4.17458	63.4286
4.17123	63.4804
4.16787	63.5159
4.16453	63.5324
4.16118	63.5076
4.15785	63.5007
4.15451	63.5201
4.15119	63.5231
4.14787	63.5818
4.14455	63.5976
4.14124	63.5675
4.13794	63.5607
4.13464	63.533
4.13134	63.5105
4.12805	63.531
4.12477	63.4936
4.12149	63.4339
4.11822	63.3952
4.11495	63.4055
4.11168	63.3456
4.10843	63.3447
4.10517	63.3687
4.10192	63.3605
4.09868	63.3411
4.09545	63.3274
4.09221	63.2578
4.08899	63.154
4.08576	63.1514
4.08255	63.1174
4.07933	63.0019
4.07613	62.9753
4.07292	62.9883
4.06973	62.9271
4.06654	62.849
4.06335	62.8792
4.06017	62.9029
4.05699	62.8728
4.05382	62.8623
4.05065	62.8842
4.04749	62.8937
4.04433	62.8234
4.04118	62.7315
4.03803	62.6775
4.03489	62.6995
4.03175	62.7058
4.02862	62.6354
4.02549	62.6862
4.02237	62.6993
4.01925	62.7052
4.01614	62.8128
4.01303	62.8629
4.00993	62.8666
4.00683	62.8423
4.00373	62.7604
4.00064	62.7901
3.99756	62.7519
3.99448	62.6555
3.9914	62.4804
3.98833	62.305
3.98527	62.1053
3.98221	61.9272
3.97915	61.8408
3.9761	61.8684
3.97305	62.0268
3.97001	62.2652
3.96697	62.5154
3.96394	62.7337
3.96091	62.9041
3.95789	63.0112
3.95487	63.0466
3.95186	63.1862
3.94885	63.2539
3.94584	63.3567
3.94284	63.4226
3.93984	63.428
3.93685	63.4947
3.93386	63.5344
3.93088	63.602
3.9279	63.6381
3.92493	63.6637
3.92196	63.7021
3.919	63.7998
3.91604	63.9021
3.91308	64.0096
3.91013	64.0111
3.90718	63.9556
3.90424	64.0429
3.9013	64.1588
3.89837	64.1988
3.89544	64.1662
3.89252	64.1537
3.8896	64.2056
3.88668	64.1716
3.88377	64.1373
3.88086	64.1235
3.87796	64.1184
3.87506	64.1002
3.87217	64.0675
3.86928	63.9598
3.86639	63.7971
3.86351	63.7084
3.86064	63.6411
3.85776	63.5479
3.8549	63.4018
3.85203	63.2907
3.84917	63.2629
3.84631	63.2143
3.84346	63.0683
3.84062	62.8707
3.83777	62.7831
3.83494	62.7467
3.8321	62.6337
3.82927	62.5449
3.82644	62.4377
3.82362	62.3112
3.82081	62.2509
3.81799	62.206
3.81518	62.0965
3.81238	62.0178
3.80958	61.9873
3.80678	61.912
3.80399	61.9201
3.8012	61.9484
3.79841	61.9007
3.79563	61.8173
3.79286	61.777
3.79008	61.7952
3.78731	61.7355
3.78455	61.7483
3.78179	61.7995
3.77903	61.7647
3.77628	61.738
3.77353	61.8227
3.77079	61.9032
3.76805	61.9707
3.76531	62.0142
3.76258	62.0231
3.75985	62.0196
3.75713	62.0901
3.7544	62.1612
3.75169	62.1579
3.74898	62.1486
3.74627	62.188
3.74356	62.2456
3.74086	62.2457
3.73816	62.301
3.73547	62.3389
3.73278	62.2074
3.7301	62.1428
3.72741	62.2324
3.72474	62.2318
3.72206	62.1581
3.71939	62.0845
3.71673	62.0297
3.71406	61.9798
3.71141	61.9133
3.70875	61.7857
3.7061	61.7034
3.70345	61.6596
3.70081	61.6179
3.69817	61.4565
3.69553	61.2977
3.6929	61.2486
3.69027	61.1533
3.68765	61.0853
3.68503	60.9557
3.68241	60.7637
3.6798	60.5866
3.67719	60.5285
3.67458	60.4414
3.67198	60.3325
3.66938	60.2552
3.66678	60.1896
3.66419	60.1232
3.66161	60.105
3.65902	60.0123
3.65644	59.9001
3.65387	59.7914
3.65129	59.772
3.64872	59.899
3.64616	59.9543
3.64359	59.9316
3.64103	59.9027
3.63848	59.9337
3.63593	60.0067
3.63338	60.0593
3.63084	60.0821
3.6283	60.1686
3.62576	60.2425
3.62322	60.2641
3.62069	60.3182
3.61817	60.3654
3.61564	60.3746
3.61312	60.4057
3.61061	60.4653
3.6081	60.4776
3.60559	60.4598
3.60308	60.4381
3.60058	60.4631
3.59808	60.4811
3.59558	60.4069
3.59309	60.3238
3.59061	60.2999
3.58812	60.2642
3.58564	60.1887
3.58316	60.1466
3.58069	60.1262
3.57822	60.103
3.57575	60.0381
3.57328	59.9712
3.57082	59.8957
3.56836	59.7836
3.56591	59.704
3.56346	59.6557
3.56101	59.5922
3.55857	59.4597
3.55613	59.4136
3.55369	59.3904
3.55126	59.3158
3.54883	59.2655
3.5464	59.1657
3.54397	59.0127
3.54155	58.9041
3.53914	58.8186
3.53672	58.7324
3.53431	58.6643
3.5319	58.5605
3.5295	58.4446
3.5271	58.3999
3.5247	58.2778
3.52231	58.1315
3.51991	58.0005
3.51753	57.8417
3.51514	57.6886
3.51276	57.4449
3.51038	57.163
3.50801	56.9933
3.50563	56.7743
3.50327	56.5639
3.5009	56.453
3.49854	56.4211
3.49618	56.4175
3.49382	56.48
3.49147	56.5668
3.48912	56.5822
3.48677	56.6317
3.48443	56.6474
3.48209	56.5309
3.47975	56.4203
3.47742	56.3026
3.47509	56.212
3.47276	56.1324
3.47044	56.0944
3.46812	56.0249
3.4658	56
3.46348	56.001
3.46117	55.9782
3.45886	55.889
3.45656	55.7251
3.45425	55.5379
3.45195	55.3175
3.44966	55.1879
3.44736	55.0486
3.44507	54.9233
3.44279	54.8925
3.4405	54.7837
3.43822	54.5864
3.43594	54.4821
3.43367	54.4313
3.43139	54.3115
3.42912	54.1238
3.42686	53.9342
3.42459	53.7095
3.42233	53.5305
3.42007	53.4108
3.41782	53.31
3.41557	53.309
3.41332	53.329
3.41108	53.3919
3.40883	53.4196
3.40659	53.3696
3.40435	53.315
3.40212	53.2746
3.39989	53.2776
3.39766	53.252
3.39544	53.0951
3.39322	52.9041
3.391	52.6678
3.38878	52.3741
3.38657	52.1445
3.38436	51.8884
3.38215	51.5554
3.37994	51.1936
3.37774	50.8467
3.37554	50.4732
3.37335	50.107
3.37115	49.8546
3.36896	49.6828
3.36678	49.4953
3.36459	49.2782
3.36241	49.1035
3.36023	48.9702
3.35805	48.9214
3.35588	48.7945
3.35371	48.7316
3.35154	48.7485
3.34938	48.7853
3.34721	48.8613
3.34505	48.9265
3.3429	48.9838
3.34074	49.0727
3.33859	49.168
3.33644	49.2207
3.3343	49.3672
3.33215	49.4989
3.33001	49.5195
3.32788	49.5331
3.32574	49.5723
3.32361	49.6426
3.32148	49.6544
3.31936	49.6556
3.31723	49.7037
3.31511	49.7456
3.31299	49.7833
3.31088	49.751
3.30876	49.6646
3.30665	49.631
3.30455	49.6193
3.30244	49.597
3.30034	49.5777
3.29824	49.5344
3.29614	49.4316
3.29405	49.3369
3.29196	49.1569
3.28987	48.939
3.28778	48.7239
3.2857	48.4913
3.28362	48.28
3.28154	48.0967
3.27946	47.9591
3.27739	47.7153
3.27532	47.5476
3.27325	47.3082
3.27119	46.9887
3.26913	46.6269
3.26707	46.2772
3.26501	45.9527
3.26295	45.7016
3.2609	45.3897
3.25885	45.1037
3.2568	44.8418
3.25476	44.5761
3.25272	44.3361
3.25068	44.0844
3.24864	43.8438
3.24661	43.5515
3.24458	43.2432
3.24255	43.077
3.24052	42.8741
3.2385	42.6786
3.23648	42.4533
3.23446	42.1643
3.23244	41.9744
3.23043	41.827
3.22841	41.6769
3.2264	41.5461
3.2244	41.2838
3.22239	41.0697
3.22039	41.0042
3.21839	40.7889
3.2164	40.6389
3.2144	40.6253
3.21241	40.5699
3.21042	40.4429
3.20844	40.3587
3.20645	40.3568
3.20447	40.348
3.20249	40.3901
3.20051	40.3485
3.19854	40.2249
3.19657	40.134
3.1946	40.0742
3.19263	39.9522
3.19067	39.8172
3.1887	39.7175
3.18674	39.5058
3.18479	39.3495
3.18283	39.2578
3.18088	39.1618
3.17893	38.9517
3.17698	38.6468
3.17504	38.4163
3.17309	38.2954
3.17115	38.2029
3.16921	38.1044
3.16728	37.9246
3.16534	37.8444
3.16341	37.816
3.16148	37.7891
3.15956	37.7829
3.15763	37.7785
3.15571	37.82
3.15379	37.8182
3.15187	37.7983
3.14996	37.7517
3.14805	37.652
3.14614	37.6259
3.14423	37.6381
3.14232	37.5862
3.14042	37.5149
3.13852	37.4157
3.13662	37.331
3.13472	37.2307
3.13283	37.0691
3.13094	37.0566
3.12905	37.0056
3.12716	36.8579
3.12528	36.6471
3.12339	36.3942
3.12151	36.2113
3.11964	36.023
3.11776	35.7539
3.11589	35.4854
3.11401	35.1799
3.11214	34.8803
3.11028	34.5783
3.10841	34.1431
3.10655	33.6537
3.10469	33.1481
3.10283	32.6594
3.10098	32.1321
3.09912	31.6355
3.09727	31.1296
3.09542	30.5905
3.09358	30.0772
3.09173	29.5671
3.08989	29.135
3.08805	28.6898
3.08621	28.2289
3.08437	27.8657
3.08254	27.5633
3.08071	27.1882
3.07888	26.836
3.07705	26.657
3.07523	26.3639
3.0734	26.109
3.07158	25.9118
3.06977	25.6619
3.06795	25.4477
3.06613	25.2245
3.06432	24.9393
3.06251	24.8096
3.0607	24.572
3.0589	24.2843
3.0571	24.1491
3.05529	24.1359
3.05349	24.1166
3.0517	24.0439
3.0499	24.0826
3.04811	24.2383
3.04632	24.4123
3.04453	24.5244
3.04274	24.458
3.04096	24.4763
3.03918	24.579
3.0374	24.5344
3.03562	24.5245
3.03384	24.6028
3.03207	24.6326
3.03029	24.6083
3.02852	24.556
3.02676	24.4249
3.02499	24.3309
3.02323	24.3706
3.02146	24.4068
3.0197	24.3546
3.01795	24.2139
3.01619	23.8955
3.01444	23.5595
3.01269	23.2069
3.01094	22.7863
3.00919	22.3369
3.00744	21.8172
3.0057	21.3239
3.00396	20.8203
3.00222	20.2108
3.00048	19.6866
2.99875	19.1092
2.99701	18.3964
2.99528	17.7304
2.99355	17.0812
2.99183	16.5338
2.9901	15.9021
2.98838	15.1912
2.98666	14.5474
2.98494	14.0468
2.98322	13.395
2.9815	12.8563
2.97979	12.2342
2.97808	11.437
2.97637	10.7734
2.97466	10.113
2.97295	9.50591
2.97125	9.09598
2.96955	8.52991
2.96785	7.99769
2.96615	7.59028
2.96446	7.23837
2.96276	7.03445
2.96107	6.87961
2.95938	6.59088
2.95769	6.35679
2.95601	6.20263
2.95432	6.0223
2.95264	5.94301
2.95096	5.96786
2.94928	5.89583
2.9476	5.82185
2.94593	5.88447
2.94425	6.1081
2.94258	6.36713
2.94092	6.54151
2.93925	6.88483
2.93758	7.50891
2.93592	8.12835
2.93426	8.69041
2.9326	9.27292
2.93094	9.97999
2.92928	10.7097
2.92763	11.4642
2.92598	12.2724
2.92433	13.069
2.92268	13.7718
2.92103	14.4549
2.91939	15.0945
2.91775	15.8443
2.9161	16.4805
2.91447	17.1577
2.91283	17.6843
2.91119	18.0226
2.90956	18.5617
2.90793	18.9685
2.9063	19.2302
2.90467	19.4774
2.90304	19.7162
2.90142	19.958
2.89979	20.0921
2.89817	20.1591
2.89656	20.3273
2.89494	20.603
2.89332	20.7325
2.89171	20.9167
2.8901	21.1398
2.88849	21.1452
2.88688	21.127
2.88527	21.0856
2.88367	21.1555
2.88206	21.2947
2.88046	21.3763
2.87886	21.4819
2.87727	21.6363
2.87567	21.753
2.87408	21.9558
2.87248	22.2013
2.87089	22.42
2.8693	22.7552
2.86772	23.1282
2.86613	23.3242
2.86455	23.5642
2.86297	23.8522
2.86139	24.077
2.85981	24.3485
2.85823	24.6927
2.85666	25.0118
2.85508	25.3882
2.85351	25.8141
2.85194	26.2797
2.85038	26.6645
2.84881	26.9596
2.84724	27.2653
2.84568	27.6265
2.84412	28.0943
2.84256	28.5584
2.841	29.0774
2.83945	29.5955
2.83789	29.9172
2.83634	30.3493
2.83479	30.7322
2.83324	31.0165
2.83169	31.4171
2.83015	31.8901
2.82861	32.2612
2.82706	32.6012
2.82552	32.9289
2.82398	33.2565
2.82245	33.7167
2.82091	34.1283
2.81938	34.2652
2.81784	34.4586
2.81631	34.8609
2.81479	35.1423
2.81326	35.2839
2.81173	35.4834
2.81021	35.6604
2.80869	35.7478
2.80716	35.7781
2.80565	35.9904
2.80413	36.3183
2.80261	36.4444
2.8011	36.2568
2.79959	36.0835
2.79808	36.2113
2.79657	36.262
2.79506	36.1286
2.79355	36.1726
2.79205	36.145
2.79055	36.0493
2.78904	36.29
2.78754	36.7383
2.78605	36.8088
2.78455	36.5783
2.78306	36.5827
2.78156	36.8436
2.78007	36.9857
2.77858	37.1864
2.77709	37.6169
2.77561	37.8954
2.77412	38.1155
2.77264	38.5111
2.77116	39.2594
2.76968	39.7218
2.7682	40.0198
2.76672	40.257
2.76524	40.5966
2.76377	41.2441
2.7623	41.795
2.76083	41.541
2.75936	41.4355
2.75789	42.2709
2.75642	43.6991
2.75496	44.0618
2.7535	43.3211
2.75203	43.3553
2.75057	43.5699
2.74912	43.7041
2.74766	43.7882
2.7462	43.8692
2.74475	43.8094
2.7433	44.3399
2.74185	45.6325
2.7404	46.789
2.73895	46.748
2.7375	46.1543
2.73606	46.3273
2.73462	46.548
2.73318	46.1947
2.73174	46.3005
2.7303	46.7107
2.72886	47.4954
2.72742	48.4096
2.72599	49.5907
2.72456	50.6901
2.72313	50.3967
2.7217	50.9576
2.72027	52.1494
2.71884	51.8892
2.71742	52.1989
2.71599	52.4933
2.71457	52.9442
2.71315	53.8166
2.71173	55.5748
2.71032	56.3998
2.7089	56.0622
2.70748	55.891
2.70607	56.1145
2.70466	56.5274
2.70325	56.9879
2.70184	57.6957
2.70043	57.9342
2.69903	57.9082
2.69762	58.4255
2.69622	59.3193
2.69482	60.1679
2.69342	60.4235
2.69202	59.8516
2.69062	59.816
2.68923	60.0573
2.68783	60.374
2.68644	60.728
2.68505	60.9515
2.68366	61.1624
2.68227	60.9355
2.68089	61.0452
2.6795	61.9114
2.67812	62.1366
2.67673	62.4695
2.67535	61.9007
2.67397	61.1572
2.6726	61.2988
2.67122	63.0947
2.66984	63.29
2.66847	61.9591
2.6671	62.7226
2.66572	62.9519
2.66435	62.135
2.66299	60.8836
2.66162	60.8279
2.66025	61.0695
2.65889	61.183
2.65753	61.1577
2.65616	61.7954
2.65481	62.1854
2.65345	62.6892
2.65209	63.0479
2.65073	62.8877
2.64938	62.9456
2.64803	63.3596
2.64667	64.0506
2.64532	64.4573
2.64397	64.1437
2.64263	64.3562
2.64128	64.5441
2.63994	64.6018
2.63859	64.6196
2.63725	64.6786
2.63591	64.785
2.63457	65.2956
2.63323	65.4296
2.6319	65.8635
2.63056	66.9413
2.62923	66.1578
2.62789	65.8413
2.62656	66.4783
2.62523	65.6213
2.6239	65.1493
2.62258	65.4126
2.62125	66.6186
2.61993	66.9548
2.6186	66.3386
2.61728	66.9986
2.61596	66.5362
2.61464	65.6856
2.61332	65.8922
2.61201	65.7902
2.61069	65.9708
2.60938	66.2615
2.60807	66.3446
2.60675	66.9312
2.60544	67.485
2.60414	66.6492
2.60283	66.0373
2.60152	65.876
2.60022	65.5322
2.59891	65.2538
2.59761	65.5801
2.59631	67.1065
2.59501	69.1194
2.59371	67.6554
2.59242	65.5867
2.59112	65.196
2.58983	65.4434
2.58853	65.7509
2.58724	65.9039
2.58595	65.5387
2.58466	66.239
2.58338	66.3814
2.58209	65.6022
2.5808	65.5253
2.57952	65.0621
2.57824	65.1426
2.57695	65.5237
2.57567	65.2637
2.5744	65.5716
2.57312	65.9704
2.57184	65.1756
2.57057	65.2536
2.56929	65.2692
2.56802	64.6335
2.56675	64.2682
2.56548	64.562
2.56421	64.932
2.56294	65.0594
2.56168	65.0522
2.56041	64.3448
2.55915	63.5636
2.55789	63.2909
2.55662	63.1917
2.55536	63.2073
2.5541	63.3287
2.55285	63.4003
2.55159	63.3055
2.55034	63.1599
2.54908	62.9454
2.54783	62.8886
2.54658	62.6265
2.54533	62.4981
2.54408	62.5678
2.54283	62.6137
2.54159	62.41
2.54034	62.2203
2.5391	62.1358
2.53785	62.0402
2.53661	62.0651
2.53537	62.0393
2.53413	61.9656
2.53289	61.9387
2.53166	61.8661
2.53042	61.7026
2.52919	61.5139
2.52795	61.5127
2.52672	61.5057
2.52549	61.4429
2.52426	61.3835
2.52303	61.3397
2.52181	61.3339
2.52058	61.324
2.51936	61.3542
2.51813	61.3043
2.51691	61.1977
2.51569	61.0812
2.51447	61.0825
2.51325	61.0754
2.51203	61.136
2.51082	61.1301
2.5096	61.0884
2.50839	61.0906
2.50717	61.0399
2.50596	60.8634
2.50475	60.7983
2.50354	60.8145
2.50233	60.6515
2.50113	60.486
2.49992	60.4808
2.49872	60.4391
2.49751	60.4445
2.49631	60.4324
2.49511	60.3487
2.49391	60.2886
2.49271	60.3097
2.49151	60.2768
2.49031	60.2246
2.48912	60.2266
2.48792	60.2443
2.48673	60.1614
2.48554	60.1442
2.48435	60.2218
2.48316	60.2149
2.48197	60.1388
2.48078	60.1178
2.4796	60.1637
2.47841	60.2534
2.47723	60.2627
2.47604	60.1418
2.47486	60.056
2.47368	60.0182
2.4725	59.8991
2.47132	59.8702
2.47014	59.8513
2.46897	59.8058
2.46779	59.7042
2.46662	59.624
2.46545	59.4633
2.46427	59.2981
2.4631	59.3686
2.46193	59.3949
2.46077	59.1672
2.4596	59.047
2.45843	59.1462
2.45727	58.9871
2.4561	58.6976
2.45494	58.6452
2.45378	58.7223
2.45262	58.7489
2.45146	58.4766
2.4503	58.1788
2.44914	58.0965
2.44799	58.0819
2.44683	58.096
2.44568	58.0026
2.44452	57.814
2.44337	57.7377
2.44222	57.6006
2.44107	57.3935
2.43992	57.3995
2.43877	57.3691
2.43763	57.121
2.43648	57.023
2.43534	56.993
2.43419	56.9008
2.43305	56.8871
2.43191	56.9045
2.43077	56.7098
2.42963	56.5528
2.42849	56.3997
2.42736	56.2141
2.42622	55.956
2.42509	55.956
2.42395	55.9798
2.42282	55.8201
2.42169	55.7696
2.42056	55.6586
2.41943	55.513
2.4183	55.3547
2.41717	55.1184
2.41605	54.9037
2.41492	54.805
2.4138	54.7391
2.41267	54.634
2.41155	54.5297
2.41043	54.4555
2.40931	54.3652
2.40819	54.2367
2.40707	54.0227
2.40595	53.7837
2.40484	53.6232
2.40372	53.5739
2.40261	53.5127
2.4015	53.2808
2.40039	53.0373
2.39928	53.0409
2.39817	52.9646
2.39706	52.691
2.39595	52.4912
2.39484	52.3169
2.39374	52.1723
2.39263	51.9713
2.39153	51.806
2.39043	51.6329
2.38932	51.4106
2.38822	51.186
2.38712	50.9982
2.38603	50.691
2.38493	50.2392
2.38383	49.8692
2.38274	49.5481
2.38164	49.0749
2.38055	48.5984
2.37946	48.1771
2.37836	47.6639
2.37727	47.2759
2.37618	46.9363
2.3751	46.5082
2.37401	46.1507
2.37292	45.8181
2.37184	45.5841
2.37075	45.4316
2.36967	45.3852
2.36859	45.3903
2.3675	45.447
2.36642	45.6086
2.36534	45.6531
2.36427	45.6956
2.36319	45.9393
2.36211	46.1085
2.36104	46.1807
2.35996	46.2178
2.35889	46.3503
2.35781	46.4578
2.35674	46.476
2.35567	46.4558
2.3546	46.3854
2.35353	46.2296
2.35247	46.1502
2.3514	46.0357
2.35033	45.8644
2.34927	45.7712
2.3482	45.5647
2.34714	45.4517
2.34608	45.3451
2.34502	45.1672
2.34396	45.0167
2.3429	44.7927
2.34184	44.4164
2.34078	44.1183
2.33973	43.8395
2.33867	43.4524
2.33762	43.1066
2.33656	42.7103
2.33551	42.3435
2.33446	41.9442
2.33341	41.3608
2.33236	40.7493
2.33131	40.2053
2.33026	39.8332
2.32922	39.474
2.32817	39.0028
2.32712	38.5662
2.32608	38.3043
2.32504	38.1566
2.324	37.9864
2.32295	38.0289
2.32191	38.1922
2.32087	38.1402
2.31984	38.3277
2.3188	38.6525
2.31776	38.8876
2.31673	39.1308
2.31569	39.1811
2.31466	39.2269
2.31362	39.2821
2.31259	39.3719
2.31156	39.5121
2.31053	39.5758
2.3095	39.634
2.30847	39.7096
2.30745	39.6215
2.30642	39.4843
2.3054	39.6109
2.30437	39.7601
2.30335	39.6996
2.30232	39.5977
2.3013	39.7484
2.30028	39.8829
2.29926	39.8561
2.29824	39.9089
2.29722	40.1163
2.29621	40.4561
2.29519	40.3463
2.29417	40.309
2.29316	40.5626
2.29215	40.7569
2.29113	40.7875
2.29012	40.9396
2.28911	41.0213
2.2881	40.9543
2.28709	41.0276
2.28608	41.0924
2.28507	41.021
2.28407	41.0629
2.28306	41.1863
2.28206	41.1658
2.28105	41.0536
2.28005	41.0714
2.27905	41.0733
2.27805	41.007
2.27705	41.1318
2.27605	41.1061
2.27505	40.9461
2.27405	41.0213
2.27305	41.0577
2.27206	41.0083
2.27106	40.9611
2.27007	40.9566
2.26907	40.9907
2.26808	41.0484
2.26709	41.0955
2.2661	41.1239
2.26511	41.1213
2.26412	41.1488
2.26313	41.2298
2.26214	41.3275
2.26116	41.3662
2.26017	41.4187
2.25919	41.4493
2.2582	41.4062
2.25722	41.3952
2.25624	41.4785
2.25526	41.6042
2.25428	41.6519
2.2533	41.6293
2.25232	41.5766
2.25134	41.5601
2.25036	41.5798
2.24939	41.6499
2.24841	41.515
2.24744	41.365
2.24646	41.5022
2.24549	41.5731
2.24452	41.5586
2.24355	41.5399
2.24257	41.5759
2.24161	41.5087
2.24064	41.4201
2.23967	41.3965
2.2387	41.4038
2.23774	41.3826
2.23677	41.372
2.23581	41.3045
2.23484	41.3527
2.23388	41.3878
2.23292	41.2383
2.23196	41.049
2.231	40.9675
2.23004	40.9636
2.22908	41.0409
2.22812	41.0878
2.22716	41.1697
2.22621	41.0915
2.22525	40.9204
2.2243	40.9803
2.22334	41.0687
2.22239	41.0512
2.22144	40.8546
2.22049	40.5938
2.21953	40.7172
2.21859	40.7981
2.21764	40.8058
2.21669	40.8981
2.21574	40.7568
2.21479	40.5834
2.21385	40.5241
2.2129	40.4401
2.21196	40.4914
2.21102	40.5464
2.21007	40.4727
2.20913	40.3608
2.20819	40.3135
2.20725	40.2068
2.20631	40.2048
2.20537	40.2921
2.20444	40.3142
2.2035	40.333
2.20256	40.3848
2.20163	40.3173
2.20069	40.0525
2.19976	40.0067
2.19883	40.2165
2.19789	40.3359
2.19696	40.2839
2.19603	40.1524
2.1951	40.1549
2.19417	40.0889
2.19325	39.9383
2.19232	39.9239
2.19139	39.9523
2.19047	39.8629
2.18954	39.639
2.18862	39.6367
2.18769	39.8396
2.18677	39.8407
2.18585	39.7833
2.18493	39.6589
2.18401	39.6819
2.18309	39.885
2.18217	39.8193
2.18125	39.5879
2.18033	39.629
2.17942	39.4952
2.1785	39.4398
2.17759	39.44
2.17667	39.4663
2.17576	39.3727
2.17485	39.4229
2.17393	39.5905
2.17302	39.5344
2.17211	39.4392
2.1712	39.4007
2.17029	39.2907
2.16939	39.2269
2.16848	39.2237
2.16757	39.1106
2.16667	39.0839
2.16576	39.1015
2.16486	39.1373
2.16395	39.3126
2.16305	39.3772
2.16215	39.2522
2.16125	39.0858
2.16035	39.0708
2.15945	38.963
2.15855	38.9664
2.15765	38.9274
2.15675	38.9623
2.15586	39.0071
2.15496	38.9138
2.15406	38.8716
2.15317	38.9138
2.15228	39.0426
2.15138	39.0014
2.15049	38.9473
2.1496	38.9233
2.14871	38.9228
2.14782	39.0035
2.14693	38.9316
2.14604	38.8531
2.14515	39.011
2.14427	39.0408
2.14338	39.0064
2.14249	38.9191
2.14161	38.6531
2.14072	38.5687
2.13984	38.7163
2.13896	38.7989
2.13808	38.8276
2.13719	38.8172
2.13631	38.6589
2.13543	38.702
2.13455	38.802
2.13368	38.7195
2.1328	38.7631
2.13192	38.7776
2.13105	38.7016
2.13017	38.7864
2.1293	38.5984
2.12842	38.4347
2.12755	38.5237
2.12668	38.5699
2.1258	38.525
2.12493	38.423
2.12406	38.3252
2.12319	38.4543
2.12232	38.6123
2.12145	38.6467
2.12059	38.5575
2.11972	38.5239
2.11885	38.5882
2.11799	38.607
2.11712	38.5658
2.11626	38.5044
2.1154	38.4953
2.11453	38.5623
2.11367	38.4976
2.11281	38.2844
2.11195	38.2631
2.11109	38.4408
2.11023	38.3539
2.10937	38.289
2.10851	38.2805
2.10766	38.359
2.1068	38.2797
2.10594	38.2635
2.10509	38.3384
2.10423	38.3168
2.10338	38.4492
2.10253	38.5246
2.10168	38.295
2.10082	38.17
2.09997	38.3388
2.09912	38.3573
2.09827	38.4095
2.09742	38.7
2.09658	38.6128
2.09573	38.5891
2.09488	38.6353
2.09404	38.6178
2.09319	38.5084
2.09235	38.2043
2.0915	38.1124
2.09066	38.3549
2.08982	38.4711
2.08897	38.3305
2.08813	38.4535
2.08729	38.6079
2.08645	38.5165
2.08561	38.4508
2.08477	38.3476
2.08394	38.2176
2.0831	38.1573
2.08226	38.3298
2.08143	38.5285
2.08059	38.4934
2.07976	38.4865
2.07892	38.3347
2.07809	38.2843
2.07726	38.4079
2.07643	38.2935
2.07559	38.2759
2.07476	38.5211
2.07393	38.4796
2.0731	38.3536
2.07228	38.3213
2.07145	38.3606
2.07062	38.6077
2.06979	38.5843
2.06897	38.4321
2.06814	38.33
2.06732	38.4823
2.06649	38.5152
2.06567	38.4758
2.06485	38.2979
2.06403	38.2198
2.0632	38.5758
2.06238	38.7081
2.06156	38.5777
2.06074	38.658
2.05993	38.6894
2.05911	38.6479
2.05829	38.4015
2.05747	38.3433
2.05666	38.7449
2.05584	39.0792
2.05503	38.7178
2.05421	38.219
2.0534	38.4156
2.05259	38.7438
2.05177	38.7482
2.05096	38.6635
2.05015	38.4326
2.04934	38.3434
2.04853	38.6055
2.04772	38.6746
2.04691	38.3027
2.04611	38.2409
2.0453	38.6286
2.04449	38.6736
2.04369	38.5422
2.04288	38.8436
2.04208	38.9969
2.04127	38.9161
2.04047	38.7577
2.03967	38.5137
2.03886	38.4425
2.03806	38.5858
2.03726	38.7559
2.03646	38.8892
2.03566	38.7524
2.03486	38.6255
2.03407	38.6644
2.03327	38.7373
2.03247	38.7004
2.03167	38.697
2.03088	38.8798
2.03008	39.083
2.02929	39.003
2.0285	38.7753
2.0277	38.6653
2.02691	38.7849
2.02612	38.9401
2.02533	39.047
2.02453	38.8909
2.02374	38.7299
2.02295	38.7735
2.02217	38.8509
2.02138	38.9601
2.02059	39.0146
2.0198	39.0227
2.01902	39.1389
2.01823	39.2501
2.01744	39.1962
2.01666	39.0779
2.01588	39.0168
2.01509	39.195
2.01431	39.2359
2.01353	39.0562
2.01275	39.1289
2.01196	39.2646
2.01118	38.9745
2.0104	38.8833
2.00963	39.0693
2.00885	39.2051
2.00807	39.3752
2.00729	39.5084
2.00651	39.3839
2.00574	39.2538
2.00496	39.2282
2.00419	39.2492
2.00341	39.3158
2.00264	39.2927
2.00187	39.3121
2.00109	39.4067
2.00032	39.3698
