Name: Corrensite (Mg,Fe)_9(Si,Al)_8O_20(OH)_10._xH_2O
Type: Mineral
Class: Silicates
Subclass: Phyllosilicates
Particle Size: 45-125um
Sample No.: PS-10A
Owner: JPL
Wavelength range: IR
Origin: USA, Washington, Packwood
Collected by Clay Mineral Society
Description: 





Measurement: Hemispherical reflectance
First Column: X
Second Column: Y
X Units:  Wavelength (micrometers)
Y Units:  Reflectance (percent)
First X Value: 15.3853
Last X Value: 2.00032
Number of X Values: 2256
Additional information: ps10aa.txt
 
15.3853	1.83438
15.3397	2.09068
15.2945	2.23678
15.2495	2.20094
15.2048	2.11765
15.1603	2.05282
15.1161	1.91066
15.0722	1.83208
15.0285	2.09609
14.9851	2.04048
14.9419	1.87286
14.8989	1.89896
14.8563	1.86358
14.8138	1.83591
14.7716	1.88724
14.7296	1.85935
14.6879	1.63312
14.6464	1.677
14.6052	1.67709
14.5641	1.72904
14.5233	1.90391
14.4828	2.06204
14.4424	2.01817
14.4023	1.93244
14.3624	1.86462
14.3227	1.74863
14.2833	1.62032
14.244	1.70453
14.205	1.89486
14.1662	1.92579
14.1276	1.97571
14.0892	2.30544
14.051	2.24074
14.0131	1.91265
13.9753	1.78138
13.9377	1.8537
13.9004	1.97852
13.8632	2.10543
13.8262	2.06787
13.7895	2.03501
13.7529	2.24089
13.7165	2.17347
13.6803	2.07122
13.6443	2.12907
13.6085	2.1627
13.5729	2.11834
13.5374	2.0051
13.5022	2.0644
13.4671	2.12311
13.4322	2.09021
13.3975	2.05194
13.363	2.17346
13.3286	2.19494
13.2944	2.18721
13.2604	2.30087
13.2266	2.22327
13.193	2.12031
13.1595	2.09763
13.1262	2.18505
13.093	2.25671
13.06	2.24771
13.0272	2.0837
12.9946	1.94067
12.9621	1.99301
12.9298	2.23831
12.8976	2.52463
12.8656	2.58606
12.8337	2.50599
12.8021	2.35363
12.7705	2.24173
12.7391	2.21461
12.7079	2.24838
12.6769	2.07583
12.6459	1.90069
12.6152	2.14331
12.5845	2.26917
12.5541	2.21424
12.5238	2.2737
12.4936	2.22414
12.4635	2.10659
12.4337	2.1158
12.4039	2.02907
12.3743	1.94866
12.3448	1.87439
12.3155	1.70699
12.2863	1.81246
12.2573	1.86753
12.2284	1.79106
12.1996	1.83453
12.171	1.83077
12.1425	2.02814
12.1141	2.18755
12.0859	2.1586
12.0578	2.24077
12.0298	2.33347
12.0019	2.36622
11.9742	2.4004
11.9466	2.40961
11.9192	2.48132
11.8918	2.50874
11.8646	2.50863
11.8375	2.58689
11.8106	2.60029
11.7837	2.51973
11.757	2.66048
11.7304	2.77115
11.7039	2.77268
11.6776	2.75248
11.6513	2.80233
11.6252	2.88954
11.5992	2.9056
11.5733	2.84358
11.5475	2.88849
11.5219	2.98306
11.4963	3.05682
11.4709	3.07974
11.4455	3.12032
11.4203	3.15862
11.3952	3.27194
11.3702	3.24062
11.3454	3.14576
11.3206	3.21002
11.2959	3.37623
11.2714	3.33391
11.2469	3.27555
11.2226	3.25132
11.1983	3.23378
11.1742	3.37832
11.1502	3.47508
11.1263	3.48985
11.1024	3.57391
11.0787	3.69437
11.0551	3.74917
11.0316	3.79622
11.0081	3.70625
10.9848	3.61946
10.9616	3.74971
10.9385	3.88866
10.9154	3.95628
10.8925	4.0504
10.8697	4.09404
10.8469	4.13448
10.8243	4.12358
10.8017	4.12859
10.7793	4.23806
10.7569	4.31097
10.7346	4.36005
10.7125	4.44078
10.6904	4.60875
10.6684	4.83063
10.6465	4.97222
10.6247	4.95161
10.6029	4.95832
10.5813	5.07679
10.5597	5.13855
10.5383	5.15951
10.5169	5.32571
10.4956	5.39135
10.4744	5.34594
10.4533	5.41676
10.4323	5.40091
10.4113	5.42169
10.3904	5.43592
10.3697	5.55713
10.349	5.80992
10.3284	5.87052
10.3078	5.94541
10.2874	6.06501
10.267	6.14007
10.2467	6.17343
10.2265	6.38975
10.2064	6.51827
10.1863	6.45064
10.1663	6.37394
10.1464	6.48002
10.1266	6.861
10.1069	7.08829
10.0872	7.16439
10.0676	7.3153
10.0481	7.48225
10.0287	7.62606
10.0093	7.71239
9.99005	7.84922
9.97084	7.92785
9.95169	8.05747
9.93263	8.27506
9.91364	8.34157
9.89472	8.44859
9.87587	8.47931
9.8571	8.53788
9.83839	8.63368
9.81976	8.7294
9.80119	8.80006
9.78271	8.7903
9.76428	8.86201
9.74592	8.96558
9.72764	9.08058
9.70943	9.10925
9.69128	9.20275
9.6732	9.35296
9.65518	9.42323
9.63724	9.3982
9.61935	9.4894
9.60155	9.52226
9.5838	9.40168
9.56611	9.23274
9.5485	9.00863
9.53094	8.85256
9.51345	8.74254
9.49604	8.70827
9.47867	8.65601
9.46137	8.38817
9.44414	8.1528
9.42697	8.13681
9.40986	8.2419
9.39281	8.26928
9.37583	8.2166
9.35891	8.29608
9.34204	8.50573
9.32524	8.64667
9.3085	8.67559
9.29182	8.66477
9.27519	8.6155
9.25863	8.46876
9.24213	8.49102
9.22568	8.49833
9.2093	8.36433
9.19297	8.22991
9.17669	8.15242
9.16048	7.9647
9.14433	7.92246
9.12823	7.88532
9.11218	7.88415
9.0962	7.77315
9.08027	7.66197
9.06439	7.69175
9.04858	7.69217
9.03281	7.6893
9.0171	7.65154
9.00145	7.54634
8.98585	7.40471
8.9703	7.22152
8.9548	7.24655
8.93937	7.42795
8.92398	7.34376
8.90865	7.07391
8.89337	7.04678
8.87814	7.18323
8.86296	7.21393
8.84784	7.1887
8.83277	7.02073
8.81774	6.87527
8.80277	6.96266
8.78786	7.08904
8.77298	7.0851
8.75816	7.1162
8.7434	7.05995
8.72868	7.02796
8.714	7.06461
8.69938	7.10924
8.68481	7.06614
8.67029	6.85621
8.65581	6.62587
8.64139	6.60319
8.62701	6.61972
8.61268	6.74152
8.5984	7.06254
8.58416	7.31886
8.56997	7.38146
8.55583	7.60992
8.54174	7.86246
8.52769	7.98712
8.51368	8.10564
8.49973	8.05463
8.48582	7.88701
8.47195	8.01156
8.45813	8.26406
8.44436	8.31858
8.43062	8.31305
8.41693	8.33686
8.4033	8.30293
8.3897	8.3417
8.37614	8.51291
8.36264	8.56573
8.34917	8.49088
8.33574	8.54098
8.32236	8.56754
8.30903	8.56033
8.29573	8.62808
8.28248	8.63208
8.26927	8.51111
8.2561	8.43762
8.24298	8.32033
8.2299	8.12123
8.21685	8.09573
8.20385	8.10041
8.19089	7.95831
8.17797	7.61595
8.16509	7.29114
8.15225	7.14447
8.13946	6.93705
8.1267	6.49576
8.11398	6.07991
8.10131	5.82726
8.08867	5.59377
8.07606	5.33281
8.0635	5.0602
8.05099	4.73676
8.0385	4.42657
8.02606	4.28125
8.01366	4.21298
8.00129	4.09135
7.98896	3.86905
7.97667	3.62735
7.96442	3.52371
7.9522	3.4409
7.94002	3.39527
7.92788	3.35691
7.91578	3.21707
7.90371	3.05631
7.89168	2.86693
7.87969	2.79641
7.86773	2.82192
7.85581	2.68295
7.84392	2.57309
7.83207	2.56865
7.82026	2.51755
7.80849	2.43545
7.79674	2.44731
7.78503	2.42101
7.77337	2.44386
7.76173	2.47815
7.75012	2.46592
7.73856	2.43849
7.72703	2.38804
7.71553	2.44172
7.70406	2.52562
7.69263	2.45968
7.68123	2.31289
7.66987	2.23199
7.65855	2.2907
7.64725	2.35584
7.63598	2.36294
7.62475	2.42479
7.61356	2.38701
7.60239	2.32808
7.59126	2.27617
7.58017	2.35729
7.5691	2.44798
7.55806	2.44976
7.54707	2.46727
7.5361	2.49328
7.52516	2.39553
7.51425	2.34718
7.50338	2.37612
7.49253	2.46064
7.48172	2.43733
7.47094	2.41169
7.46019	2.41711
7.44947	2.41057
7.43879	2.44997
7.42813	2.42739
7.4175	2.45246
7.4069	2.49478
7.39634	2.59807
7.3858	2.67679
7.37529	2.61953
7.36482	2.62805
7.35437	2.66623
7.34396	2.71717
7.33357	2.69596
7.32321	2.61461
7.31288	2.65655
7.30258	2.7024
7.29231	2.68629
7.28207	2.77322
7.27185	2.89948
7.26167	2.87409
7.25152	2.81993
7.24139	2.79045
7.23129	2.87678
7.22122	2.94905
7.21117	2.90509
7.20116	2.9466
7.19117	3.10373
7.18121	3.20077
7.17128	3.16278
7.16137	3.16829
7.1515	3.10908
7.14164	3.06337
7.13182	3.18318
7.12203	3.36241
7.11225	3.39083
7.10251	3.38768
7.0928	3.38572
7.08311	3.36676
7.07344	3.25631
7.06381	3.21724
7.0542	3.35949
7.04461	3.42504
7.03506	3.41118
7.02552	3.4008
7.01601	3.35664
7.00653	3.37497
6.99708	3.45338
6.98765	3.54658
6.97824	3.4993
6.96886	3.50851
6.95951	3.65302
6.95018	3.68826
6.94087	3.65803
6.9316	3.7092
6.92234	3.74814
6.91311	3.7901
6.90391	3.74925
6.89473	3.69842
6.88557	3.73644
6.87644	3.78838
6.86733	3.81854
6.85824	3.86
6.84918	3.83195
6.84015	3.79876
6.83114	3.84416
6.82215	3.871
6.81319	3.93727
6.80424	3.97378
6.79532	3.96957
6.78643	3.90881
6.77756	3.91638
6.76871	3.9013
6.75989	3.88581
6.75109	3.91525
6.74231	3.93216
6.73355	3.88223
6.72482	3.84903
6.71611	3.82717
6.70742	3.77425
6.69875	3.8526
6.69011	3.93588
6.68149	3.92974
6.67289	3.98713
6.66431	4.07555
6.65576	4.1584
6.64722	4.14007
6.63871	4.13625
6.63022	4.16198
6.62175	4.11877
6.61331	3.98064
6.60488	4.01931
6.59648	4.08328
6.5881	4.07168
6.57974	4.0327
6.5714	4.00475
6.56308	4.02467
6.55478	4.01307
6.54651	4.08451
6.53825	4.21065
6.53001	4.23437
6.5218	4.2112
6.51361	4.29317
6.50544	4.33541
6.49729	4.36756
6.48915	4.46518
6.48104	4.51929
6.47295	4.60768
6.46488	4.62136
6.45683	4.52874
6.4488	4.50448
6.44079	4.48822
6.4328	4.41585
6.42482	4.33657
6.41687	4.24096
6.40894	4.18106
6.40103	4.25379
6.39314	4.20989
6.38526	4.17347
6.37741	4.14225
6.36957	4.03151
6.36176	3.93422
6.35396	3.83592
6.34618	3.66079
6.33843	3.57249
6.33069	3.5784
6.32297	3.52822
6.31527	3.46298
6.30758	3.37685
6.29992	3.30458
6.29227	3.20701
6.28465	3.06918
6.27704	3.0057
6.26945	3.09622
6.26188	3.148
6.25432	3.04579
6.24679	2.87694
6.23927	2.75222
6.23177	2.67132
6.22429	2.61727
6.21683	2.57056
6.20938	2.60655
6.20195	2.54252
6.19454	2.32844
6.18715	2.29459
6.17978	2.28908
6.17242	2.22487
6.16508	2.25778
6.15776	2.30212
6.15045	2.25102
6.14317	2.24447
6.1359	2.22143
6.12864	2.2378
6.12141	2.20555
6.11419	2.21453
6.10699	2.2077
6.0998	2.17482
6.09263	2.11464
6.08549	2.14454
6.07835	2.19474
6.07123	2.20913
6.06413	2.18342
6.05705	2.22786
6.04998	2.25759
6.04293	2.30293
6.0359	2.25865
6.02888	2.31398
6.02187	2.35957
6.01489	2.33119
6.00792	2.39038
6.00096	2.50207
5.99403	2.55004
5.98711	2.54584
5.9802	2.51156
5.97331	2.55155
5.96644	2.67055
5.95958	2.78512
5.95274	2.82957
5.94591	2.87447
5.9391	2.94607
5.9323	3.04842
5.92552	3.0959
5.91876	3.13858
5.91201	3.30496
5.90528	3.42517
5.89856	3.42152
5.89186	3.52857
5.88517	3.6511
5.8785	3.83702
5.87184	4.06422
5.8652	4.17969
5.85857	4.28628
5.85196	4.37462
5.84536	4.47895
5.83878	4.60034
5.83221	4.70055
5.82566	4.72803
5.81912	4.82968
5.81259	5.0358
5.80608	5.19108
5.79959	5.26033
5.79311	5.19003
5.78665	5.24799
5.78019	5.37311
5.77376	5.42679
5.76734	5.4597
5.76093	5.545
5.75453	5.6389
5.74815	5.66949
5.74179	5.70379
5.73543	5.78331
5.7291	5.86038
5.72277	5.91787
5.71646	5.87779
5.71017	5.82071
5.70389	5.88308
5.69762	5.93652
5.69136	5.91198
5.68513	5.91996
5.6789	5.90736
5.67268	5.9026
5.66648	5.85894
5.6603	5.78327
5.65413	5.69592
5.64797	5.58563
5.64182	5.55274
5.63569	5.55394
5.62957	5.51043
5.62347	5.47733
5.61737	5.46774
5.61129	5.38874
5.60522	5.30174
5.59917	5.26849
5.59313	5.29222
5.5871	5.2783
5.58109	5.21772
5.57509	5.35575
5.5691	5.45508
5.56312	5.4441
5.55716	5.46354
5.55121	5.52535
5.54528	5.67168
5.53935	5.86544
5.53344	6.10186
5.52754	6.21588
5.52166	6.23681
5.51578	6.28473
5.50992	6.4361
5.50407	6.54664
5.49823	6.68285
5.49241	6.89317
5.4866	7.08525
5.4808	7.18806
5.47501	7.24712
5.46923	7.35288
5.46347	7.49648
5.45772	7.62768
5.45198	7.6406
5.44625	7.64839
5.44054	7.62221
5.43484	7.62739
5.42914	7.66051
5.42347	7.57261
5.4178	7.45673
5.41214	7.43425
5.4065	7.37865
5.40087	7.14456
5.39525	6.8957
5.38964	6.82931
5.38404	6.81496
5.37846	6.73884
5.37288	6.6578
5.36732	6.61978
5.36177	6.59295
5.35623	6.59244
5.35071	6.55753
5.34519	6.57865
5.33968	6.58679
5.33419	6.66904
5.32871	6.71596
5.32324	6.75451
5.31778	6.77914
5.31233	6.83462
5.30689	6.93769
5.30147	7.05775
5.29605	7.13596
5.29065	7.21071
5.28525	7.29997
5.27987	7.37362
5.2745	7.4903
5.26914	7.68354
5.26379	7.86202
5.25845	8.00952
5.25312	8.16096
5.24781	8.40054
5.2425	8.56622
5.23721	8.70315
5.23192	8.9986
5.22665	9.32058
5.22138	9.4592
5.21613	9.56443
5.21089	9.82847
5.20566	10.0306
5.20044	10.0837
5.19522	10.1593
5.19002	10.2329
5.18483	10.2915
5.17965	10.3318
5.17448	10.3733
5.16933	10.4249
5.16418	10.4663
5.15904	10.4944
5.15391	10.5685
5.14879	10.6702
5.14368	10.6601
5.13859	10.589
5.1335	10.6452
5.12842	10.7855
5.12335	10.8189
5.1183	10.8458
5.11325	10.9198
5.10821	10.9175
5.10318	10.8588
5.09817	10.8323
5.09316	10.9085
5.08816	10.842
5.08317	10.6986
5.07819	10.7474
5.07322	10.7933
5.06826	10.7327
5.06331	10.7708
5.05837	10.8761
5.05344	10.8478
5.04852	10.8692
5.04361	10.9545
5.03871	11.0093
5.03382	11.0449
5.02894	10.9586
5.02406	10.9263
5.0192	11.0023
5.01435	11.07
5.0095	11.1173
5.00467	11.3101
4.99984	11.3556
4.99502	11.3815
4.99021	11.4871
4.98542	11.6702
4.98063	11.905
4.97585	12.0895
4.97108	12.3088
4.96632	12.5549
4.96156	12.7975
4.95682	13.0971
4.95209	13.2921
4.94736	13.4531
4.94264	13.5735
4.93794	13.6844
4.93324	13.8806
4.92855	14.0377
4.92387	14.1874
4.9192	14.417
4.91453	14.6479
4.90988	14.8484
4.90524	15.1665
4.9006	15.537
4.89597	15.8238
4.89135	16.1151
4.88674	16.372
4.88214	16.6289
4.87755	16.8673
4.87296	17.007
4.86839	17.1982
4.86382	17.3965
4.85926	17.5421
4.85471	17.7077
4.85017	17.8905
4.84564	18.0207
4.84111	18.09
4.8366	18.1937
4.83209	18.2786
4.82759	18.3795
4.8231	18.4516
4.81862	18.5182
4.81415	18.6926
4.80968	18.7572
4.80522	18.7731
4.80077	18.8364
4.79633	18.9613
4.7919	19.0333
4.78747	19.0877
4.78306	19.1978
4.77865	19.2761
4.77425	19.2859
4.76986	19.3188
4.76547	19.4238
4.7611	19.4428
4.75673	19.5359
4.75237	19.6987
4.74802	19.8021
4.74367	19.8709
4.73934	19.9535
4.73501	19.9701
4.73069	20.068
4.72638	20.1912
4.72207	20.2204
4.71777	20.3269
4.71348	20.4295
4.7092	20.482
4.70493	20.4351
4.70066	20.4232
4.69641	20.5591
4.69216	20.6236
4.68791	20.6099
4.68368	20.6
4.67945	20.703
4.67523	20.8862
4.67102	20.9872
4.66682	21.1301
4.66262	21.3162
4.65843	21.4615
4.65425	21.5543
4.65007	21.6377
4.64591	21.7997
4.64175	22.0081
4.6376	22.1587
4.63345	22.3022
4.62932	22.474
4.62519	22.6247
4.62106	22.8434
4.61695	22.9551
4.61284	22.9667
4.60874	23.0811
4.60465	23.2395
4.60056	23.3306
4.59648	23.5029
4.59241	23.6806
4.58835	23.7708
4.58429	23.8082
4.58024	23.9126
4.5762	24.075
4.57216	24.2107
4.56814	24.3222
4.56411	24.4037
4.5601	24.4554
4.55609	24.5701
4.55209	24.7187
4.5481	24.7974
4.54411	24.8792
4.54013	24.8951
4.53616	24.8944
4.5322	24.9376
4.52824	24.9924
4.52429	25.0666
4.52034	25.1072
4.51641	25.1819
4.51247	25.2512
4.50855	25.235
4.50463	25.2336
4.50072	25.2419
4.49682	25.2297
4.49292	25.3175
4.48903	25.3596
4.48515	25.3451
4.48127	25.4517
4.4774	25.6024
4.47354	25.7395
4.46968	25.8314
4.46584	25.8285
4.46199	25.9433
4.45815	26.1706
4.45432	26.3061
4.4505	26.4005
4.44668	26.513
4.44287	26.5867
4.43907	26.687
4.43527	26.8096
4.43148	26.9217
4.4277	27.1084
4.42392	27.2762
4.42015	27.3943
4.41638	27.4513
4.41262	27.589
4.40887	27.7275
4.40513	27.7699
4.40139	27.9013
4.39765	28.1273
4.39393	28.2491
4.39021	28.3212
4.38649	28.4799
4.38278	28.6959
4.37908	28.8249
4.37539	28.9446
4.3717	29.1035
4.36801	29.279
4.36434	29.3258
4.36067	29.3665
4.357	29.566
4.35335	29.7389
4.34969	29.8144
4.34605	29.9017
4.34241	30.0225
4.33877	30.152
4.33514	30.1975
4.33152	30.314
4.32791	30.494
4.3243	30.5726
4.32069	30.6553
4.3171	30.7406
4.31351	30.7899
4.30992	30.9012
4.30634	31.026
4.30277	31.0754
4.2992	31.0888
4.29564	31.1305
4.29208	31.2746
4.28853	31.4119
4.28499	31.4909
4.28145	31.6081
4.27792	31.6867
4.27439	31.721
4.27087	31.8152
4.26735	31.9377
4.26384	32.0417
4.26034	32.2311
4.25684	32.4018
4.25335	32.4253
4.24986	32.4363
4.24638	32.5174
4.24291	32.6724
4.23944	32.746
4.23598	32.8642
4.23252	32.9622
4.22906	33.0132
4.22562	33.12
4.22218	33.2343
4.21874	33.3513
4.21531	33.4309
4.21189	33.5056
4.20847	33.571
4.20506	33.6554
4.20165	33.7587
4.19825	33.8267
4.19485	33.9172
4.19146	34.0104
4.18807	34.0889
4.18469	34.1983
4.18132	34.2466
4.17795	34.3514
4.17458	34.4153
4.17123	34.4314
4.16787	34.5144
4.16453	34.6603
4.16118	34.7838
4.15785	34.8083
4.15451	34.879
4.15119	35.0225
4.14787	35.1558
4.14455	35.2153
4.14124	35.2029
4.13794	35.218
4.13464	35.3351
4.13134	35.4495
4.12805	35.5348
4.12477	35.5626
4.12149	35.6102
4.11822	35.6536
4.11495	35.7517
4.11168	35.8904
4.10843	35.9886
4.10517	36.0205
4.10192	36.0517
4.09868	36.0686
4.09545	36.0823
4.09221	36.1379
4.08899	36.2224
4.08576	36.3006
4.08255	36.3811
4.07933	36.3459
4.07613	36.2987
4.07292	36.3698
4.06973	36.5181
4.06654	36.5421
4.06335	36.5327
4.06017	36.5388
4.05699	36.5425
4.05382	36.5101
4.05065	36.5425
4.04749	36.5496
4.04433	36.5166
4.04118	36.4765
4.03803	36.4019
4.03489	36.3334
4.03175	36.3278
4.02862	36.339
4.02549	36.3566
4.02237	36.3887
4.01925	36.3958
4.01614	36.3423
4.01303	36.253
4.00993	36.1083
4.00683	35.9788
4.00373	35.9139
4.00064	35.89
3.99756	35.8889
3.99448	35.8717
3.9914	35.8366
3.98833	35.8334
3.98527	35.847
3.98221	35.8389
3.97915	35.8399
3.9761	35.9047
3.97305	35.9575
3.97001	35.9998
3.96697	36.0341
3.96394	36.0428
3.96091	36.0491
3.95789	36.1409
3.95487	36.2549
3.95186	36.3084
3.94885	36.4473
3.94584	36.5243
3.94284	36.5324
3.93984	36.5967
3.93685	36.7178
3.93386	36.8153
3.93088	36.8412
3.9279	36.781
3.92493	36.7757
3.92196	36.8175
3.919	36.8741
3.91604	36.891
3.91308	36.9403
3.91013	37.0655
3.90718	37.0107
3.90424	36.864
3.9013	36.8251
3.89837	36.8643
3.89544	36.7829
3.89252	36.7079
3.8896	36.7441
3.88668	36.7082
3.88377	36.626
3.88086	36.6269
3.87796	36.6718
3.87506	36.6846
3.87217	36.6194
3.86928	36.5199
3.86639	36.4498
3.86351	36.4272
3.86064	36.462
3.85776	36.4627
3.8549	36.4052
3.85203	36.3725
3.84917	36.2771
3.84631	36.2139
3.84346	36.2177
3.84062	36.2145
3.83777	36.1713
3.83494	36.1722
3.8321	36.2038
3.82927	36.2039
3.82644	36.1714
3.82362	36.1286
3.82081	36.1469
3.81799	36.1723
3.81518	36.1773
3.81238	36.1855
3.80958	36.1888
3.80678	36.1266
3.80399	36.1052
3.8012	36.2389
3.79841	36.2164
3.79563	36.1042
3.79286	36.0678
3.79008	36.0487
3.78731	36.0016
3.78455	35.9197
3.78179	35.8763
3.77903	35.8567
3.77628	35.779
3.77353	35.6226
3.77079	35.5662
3.76805	35.5493
3.76531	35.4421
3.76258	35.3231
3.75985	35.2836
3.75713	35.2839
3.7544	35.1405
3.75169	35.0072
3.74898	35.0091
3.74627	34.9457
3.74356	34.8123
3.74086	34.7269
3.73816	34.6624
3.73547	34.56
3.73278	34.4471
3.7301	34.3529
3.72741	34.275
3.72474	34.2574
3.72206	34.1135
3.71939	33.9907
3.71673	33.9297
3.71406	33.8618
3.71141	33.7701
3.70875	33.7061
3.7061	33.6931
3.70345	33.5264
3.70081	33.3497
3.69817	33.3164
3.69553	33.1856
3.6929	33.0684
3.69027	33.0035
3.68765	32.8481
3.68503	32.6565
3.68241	32.5724
3.6798	32.585
3.67719	32.5094
3.67458	32.3526
3.67198	32.2215
3.66938	32.1918
3.66678	32.0771
3.66419	31.889
3.66161	31.795
3.65902	31.7078
3.65644	31.5792
3.65387	31.4709
3.65129	31.3389
3.64872	31.171
3.64616	31.1157
3.64359	31.0976
3.64103	31.0025
3.63848	30.791
3.63593	30.5681
3.63338	30.4925
3.63084	30.4393
3.6283	30.2737
3.62576	30.1337
3.62322	30.0168
3.62069	29.8815
3.61817	29.7811
3.61564	29.7113
3.61312	29.642
3.61061	29.4513
3.6081	29.313
3.60559	29.2149
3.60308	29.0466
3.60058	28.9033
3.59808	28.7954
3.59558	28.592
3.59309	28.503
3.59061	28.3695
3.58812	28.1808
3.58564	28.1158
3.58316	28
3.58069	27.7154
3.57822	27.5674
3.57575	27.4957
3.57328	27.2871
3.57082	27.0829
3.56836	26.9575
3.56591	26.7967
3.56346	26.6779
3.56101	26.6117
3.55857	26.465
3.55613	26.31
3.55369	26.1649
3.55126	26.0675
3.54883	25.9569
3.5464	25.7573
3.54397	25.5872
3.54155	25.4336
3.53914	25.3034
3.53672	25.143
3.53431	24.9795
3.5319	24.7664
3.5295	24.5265
3.5271	24.396
3.5247	24.2593
3.52231	24.0157
3.51991	23.8382
3.51753	23.7135
3.51514	23.4763
3.51276	23.2984
3.51038	23.2139
3.50801	23.0848
3.50563	22.9144
3.50327	22.6977
3.5009	22.5031
3.49854	22.3452
3.49618	22.1828
3.49382	22.0804
3.49147	22.0058
3.48912	21.9484
3.48677	21.8608
3.48443	21.6774
3.48209	21.5077
3.47975	21.3509
3.47742	21.2849
3.47509	21.1688
3.47276	20.9719
3.47044	20.9123
3.46812	20.83
3.4658	20.7106
3.46348	20.5279
3.46117	20.3918
3.45886	20.2743
3.45656	20.1238
3.45425	20.0573
3.45195	19.8879
3.44966	19.7121
3.44736	19.611
3.44507	19.527
3.44279	19.3798
3.4405	19.3194
3.43822	19.1776
3.43594	18.9373
3.43367	18.8098
3.43139	18.7403
3.42912	18.5291
3.42686	18.3103
3.42459	18.2064
3.42233	18.1929
3.42007	18.125
3.41782	17.8974
3.41557	17.6409
3.41332	17.4986
3.41108	17.4038
3.40883	17.3418
3.40659	17.1725
3.40435	17.0306
3.40212	16.9929
3.39989	16.8127
3.39766	16.6332
3.39544	16.5807
3.39322	16.4341
3.391	16.3411
3.38878	16.2157
3.38657	15.9975
3.38436	15.8405
3.38215	15.6826
3.37994	15.5238
3.37774	15.3995
3.37554	15.2546
3.37335	15.1908
3.37115	15.101
3.36896	15.0115
3.36678	14.8234
3.36459	14.678
3.36241	14.6151
3.36023	14.4284
3.35805	14.2649
3.35588	14.1396
3.35371	14.0642
3.35154	13.9415
3.34938	13.7663
3.34721	13.6465
3.34505	13.5786
3.3429	13.5384
3.34074	13.3944
3.33859	13.2267
3.33644	13.1537
3.3343	13.0725
3.33215	12.9893
3.33001	12.9462
3.32788	12.8335
3.32574	12.723
3.32361	12.6273
3.32148	12.4669
3.31936	12.2736
3.31723	12.18
3.31511	12.0328
3.31299	11.8935
3.31088	11.8498
3.30876	11.7886
3.30665	11.716
3.30455	11.6272
3.30244	11.4394
3.30034	11.3095
3.29824	11.2008
3.29614	11.1554
3.29405	10.9932
3.29196	10.7716
3.28987	10.707
3.28778	10.7052
3.2857	10.7241
3.28362	10.6021
3.28154	10.4737
3.27946	10.3144
3.27739	10.2254
3.27532	10.1344
3.27325	10.0029
3.27119	9.92575
3.26913	9.82799
3.26707	9.67191
3.26501	9.63864
3.26295	9.54609
3.2609	9.41509
3.25885	9.30819
3.2568	9.28712
3.25476	9.20018
3.25272	9.04841
3.25068	8.96094
3.24864	8.87164
3.24661	8.7607
3.24458	8.70459
3.24255	8.60866
3.24052	8.49941
3.2385	8.52779
3.23648	8.4741
3.23446	8.32487
3.23244	8.19995
3.23043	8.22951
3.22841	8.07694
3.2264	7.84316
3.2244	7.73405
3.22239	7.65252
3.22039	7.73721
3.21839	7.83425
3.2164	7.62175
3.2144	7.38946
3.21241	7.33331
3.21042	7.28463
3.20844	7.25627
3.20645	7.10925
3.20447	7.07462
3.20249	7.24524
3.20051	7.25971
3.19854	7.06806
3.19657	6.78095
3.1946	6.64365
3.19263	6.64725
3.19067	6.57986
3.1887	6.51899
3.18674	6.53224
3.18479	6.41426
3.18283	6.2257
3.18088	6.20291
3.17893	6.15044
3.17698	6.03428
3.17504	6.07959
3.17309	6.14448
3.17115	6.15011
3.16921	6.10323
3.16728	5.99877
3.16534	5.87168
3.16341	5.74545
3.16148	5.57356
3.15956	5.46736
3.15763	5.4624
3.15571	5.40982
3.15379	5.37499
3.15187	5.37908
3.14996	5.29465
3.14805	5.27327
3.14614	5.27577
3.14423	5.27181
3.14232	5.1708
3.14042	5.05052
3.13852	5.03125
3.13662	5.11051
3.13472	5.09339
3.13283	5.02749
3.13094	4.97026
3.12905	4.90916
3.12716	4.83599
3.12528	4.76822
3.12339	4.7247
3.12151	4.78932
3.11964	4.77547
3.11776	4.64777
3.11589	4.58212
3.11401	4.58199
3.11214	4.56059
3.11028	4.51107
3.10841	4.39773
3.10655	4.40304
3.10469	4.48834
3.10283	4.46038
3.10098	4.36683
3.09912	4.41156
3.09727	4.44423
3.09542	4.34623
3.09358	4.29442
3.09173	4.36448
3.08989	4.33386
3.08805	4.208
3.08621	4.12469
3.08437	4.09329
3.08254	4.15129
3.08071	4.03839
3.07888	3.91333
3.07705	3.97212
3.07523	4.16878
3.0734	4.16229
3.07158	4.02794
3.06977	4.01293
3.06795	4.07394
3.06613	4.05844
3.06432	3.98421
3.06251	3.94418
3.0607	3.94076
3.0589	3.93062
3.0571	3.96758
3.05529	3.93972
3.05349	3.77235
3.0517	3.79434
3.0499	3.79312
3.04811	3.79834
3.04632	3.79812
3.04453	3.72243
3.04274	3.62405
3.04096	3.57343
3.03918	3.57274
3.0374	3.608
3.03562	3.63343
3.03384	3.65629
3.03207	3.60637
3.03029	3.6883
3.02852	3.64906
3.02676	3.51613
3.02499	3.63159
3.02323	3.72556
3.02146	3.73745
3.0197	3.69112
3.01795	3.50406
3.01619	3.35455
3.01444	3.45998
3.01269	3.57505
3.01094	3.64129
3.00919	3.53006
3.00744	3.33866
3.0057	3.46152
3.00396	3.49778
3.00222	3.39929
3.00048	3.42303
2.99875	3.44036
2.99701	3.39507
2.99528	3.33982
2.99355	3.3738
2.99183	3.43704
2.9901	3.50008
2.98838	3.43037
2.98666	3.28879
2.98494	3.26886
2.98322	3.26295
2.9815	3.25925
2.97979	3.3473
2.97808	3.31047
2.97637	3.22905
2.97466	3.0993
2.97295	2.96965
2.97125	3.06427
2.96955	3.19146
2.96785	3.1241
2.96615	2.9923
2.96446	3.03705
2.96276	3.1037
2.96107	3.1144
2.95938	3.05291
2.95769	2.9928
2.95601	2.97994
2.95432	2.90681
2.95264	2.93011
2.95096	2.95305
2.94928	2.90577
2.9476	2.97019
2.94593	3.02179
2.94425	3.04242
2.94258	3.13574
2.94092	3.17255
2.93925	3.05794
2.93758	2.93737
2.93592	2.86219
2.93426	3.07714
2.9326	3.20311
2.93094	3.05491
2.92928	3.02491
2.92763	3.02168
2.92598	2.98969
2.92433	3.1385
2.92268	3.23035
2.92103	3.06753
2.91939	2.92736
2.91775	2.91589
2.9161	2.78552
2.91447	2.87472
2.91283	3.0463
2.91119	3.06389
2.90956	3.10302
2.90793	3.0765
2.9063	2.96807
2.90467	2.95584
2.90304	2.97101
2.90142	2.87227
2.89979	2.93742
2.89817	3.08626
2.89656	3.11872
2.89494	3.13526
2.89332	3.19884
2.89171	3.09521
2.8901	3.02621
2.88849	3.12076
2.88688	3.10362
2.88527	3.11804
2.88367	3.1778
2.88206	3.09253
2.88046	3.11548
2.87886	3.16743
2.87727	2.98286
2.87567	2.88205
2.87408	2.98353
2.87248	3.15616
2.87089	3.18528
2.8693	3.11153
2.86772	3.01554
2.86613	2.93075
2.86455	3.02323
2.86297	3.05314
2.86139	3.16073
2.85981	3.17602
2.85823	3.10894
2.85666	3.15687
2.85508	3.23289
2.85351	3.0917
2.85194	3.0319
2.85038	3.05914
2.84881	3.1058
2.84724	3.22625
2.84568	3.20279
2.84412	3.24307
2.84256	3.197
2.841	3.04296
2.83945	2.97372
2.83789	3.04903
2.83634	3.1215
2.83479	3.01404
2.83324	2.93719
2.83169	3.06286
2.83015	3.21202
2.82861	3.20841
2.82706	3.09428
2.82552	3.11406
2.82398	3.11835
2.82245	3.08951
2.82091	3.06181
2.81938	3.01346
2.81784	2.96719
2.81631	2.92785
2.81479	2.94606
2.81326	2.88936
2.81173	2.81185
2.81021	2.85475
2.80869	2.99205
2.80716	2.99332
2.80565	3.04014
2.80413	3.12458
2.80261	3.10566
2.8011	2.98072
2.79959	2.93156
2.79808	2.93455
2.79657	2.86561
2.79506	2.8608
2.79355	2.81357
2.79205	2.94016
2.79055	3.18552
2.78904	3.22323
2.78754	3.20125
2.78605	3.08465
2.78455	2.92488
2.78306	3.00429
2.78156	3.03849
2.78007	3.15995
2.77858	3.13632
2.77709	3.03802
2.77561	3.02772
2.77412	3.09591
2.77264	3.17328
2.77116	3.29747
2.76968	3.53032
2.7682	3.62302
2.76672	3.65276
2.76524	3.70553
2.76377	3.71046
2.7623	3.59567
2.76083	3.66939
2.75936	3.87973
2.75789	3.9148
2.75642	3.93864
2.75496	3.97022
2.7535	4.06797
2.75203	4.22121
2.75057	4.47845
2.74912	4.68216
2.74766	4.75322
2.7462	4.96037
2.74475	5.18635
2.7433	5.29059
2.74185	5.46967
2.7404	5.68537
2.73895	5.73095
2.7375	6.07526
2.73606	6.4597
2.73462	6.6916
2.73318	6.91776
2.73174	7.32516
2.7303	7.70396
2.72886	8.20155
2.72742	8.82551
2.72599	9.33089
2.72456	9.59366
2.72313	10.2635
2.7217	10.8842
2.72027	11.3871
2.71884	12.0753
2.71742	12.8263
2.71599	13.7466
2.71457	14.7388
2.71315	15.7672
2.71173	16.7447
2.71032	17.7419
2.7089	18.9801
2.70748	20.1998
2.70607	21.1089
2.70466	22.0823
2.70325	23.1111
2.70184	23.9367
2.70043	24.7927
2.69903	25.6046
2.69762	26.359
2.69622	27.0353
2.69482	27.5252
2.69342	28.1024
2.69202	28.9911
2.69062	29.7092
2.68923	30.2587
2.68783	30.7285
2.68644	31.2543
2.68505	31.8008
2.68366	32.3309
2.68227	33.0454
2.68089	33.4444
2.6795	33.5034
2.67812	33.8641
2.67673	34.2988
2.67535	34.6634
2.67397	35.0795
2.6726	35.4837
2.67122	35.5511
2.66984	35.9311
2.66847	36.3594
2.6671	36.3263
2.66572	36.5783
2.66435	37.036
2.66299	37.4478
2.66162	37.751
2.66025	38.0507
2.65889	38.2314
2.65753	38.4451
2.65616	38.6342
2.65481	38.8682
2.65345	38.9619
2.65209	39.0949
2.65073	39.3831
2.64938	39.6361
2.64803	39.8037
2.64667	39.8443
2.64532	39.9486
2.64397	40.1425
2.64263	40.3215
2.64128	40.5064
2.63994	40.5656
2.63859	40.5897
2.63725	40.8443
2.63591	41.0526
2.63457	40.9968
2.63323	40.9873
2.6319	40.9868
2.63056	40.9458
2.62923	41.3104
2.62789	41.403
2.62656	41.2502
2.62523	41.4544
2.6239	41.687
2.62258	41.7947
2.62125	41.6863
2.61993	41.7318
2.6186	41.9517
2.61728	41.812
2.61596	41.9541
2.61464	42.1817
2.61332	42.1602
2.61201	42.2485
2.61069	42.1937
2.60938	42.1505
2.60807	42.3017
2.60675	42.4202
2.60544	42.3001
2.60414	42.3933
2.60283	42.6096
2.60152	42.7418
2.60022	42.7208
2.59891	42.7942
2.59761	42.8347
2.59631	42.4687
2.59501	41.9533
2.59371	42.2445
2.59242	42.7905
2.59112	42.8678
2.58983	42.7203
2.58853	42.6387
2.58724	42.6323
2.58595	42.8224
2.58466	42.817
2.58338	42.7466
2.58209	42.9455
2.5808	43.0451
2.57952	43.0681
2.57824	43.0225
2.57695	43.0899
2.57567	43.2138
2.5744	43.2048
2.57312	43.078
2.57184	43.1465
2.57057	43.0277
2.56929	43.057
2.56802	43.2756
2.56675	43.355
2.56548	43.3004
2.56421	43.2245
2.56294	43.3169
2.56168	43.41
2.56041	43.3795
2.55915	43.4797
2.55789	43.6086
2.55662	43.5972
2.55536	43.5695
2.5541	43.6446
2.55285	43.596
2.55159	43.5536
2.55034	43.4569
2.54908	43.5116
2.54783	43.6678
2.54658	43.7181
2.54533	43.7177
2.54408	43.6846
2.54283	43.5213
2.54159	43.5979
2.54034	43.7363
2.5391	43.7761
2.53785	43.9029
2.53661	43.8581
2.53537	43.725
2.53413	43.779
2.53289	43.8211
2.53166	43.9228
2.53042	43.9125
2.52919	43.937
2.52795	43.9733
2.52672	44.0546
2.52549	44.1212
2.52426	44.0834
2.52303	44.0531
2.52181	44.014
2.52058	44.1077
2.51936	44.2261
2.51813	44.3076
2.51691	44.3449
2.51569	44.3307
2.51447	44.3023
2.51325	44.3291
2.51203	44.444
2.51082	44.4769
2.5096	44.4864
2.50839	44.4492
2.50717	44.4328
2.50596	44.5555
2.50475	44.5517
2.50354	44.5426
2.50233	44.6864
2.50113	44.7558
2.49992	44.7174
2.49872	44.8013
2.49751	44.9117
2.49631	44.9123
2.49511	44.8849
2.49391	45.0486
2.49271	45.0806
2.49151	45.1643
2.49031	45.2432
2.48912	45.2608
2.48792	45.27
2.48673	45.2948
2.48554	45.4552
2.48435	45.5584
2.48316	45.5525
2.48197	45.5969
2.48078	45.7173
2.4796	45.7294
2.47841	45.7707
2.47723	45.8715
2.47604	45.9623
2.47486	46.0777
2.47368	46.2111
2.4725	46.1924
2.47132	46.2666
2.47014	46.3886
2.46897	46.4507
2.46779	46.5722
2.46662	46.6551
2.46545	46.6601
2.46427	46.671
2.4631	46.785
2.46193	47.0318
2.46077	47.144
2.4596	47.179
2.45843	47.2811
2.45727	47.4773
2.4561	47.549
2.45494	47.4785
2.45378	47.6475
2.45262	47.8356
2.45146	47.8057
2.4503	47.8481
2.44914	47.9309
2.44799	48.1247
2.44683	48.1786
2.44568	48.2151
2.44452	48.3754
2.44337	48.5832
2.44222	48.4949
2.44107	48.3742
2.43992	48.508
2.43877	48.7069
2.43763	48.8738
2.43648	49.0223
2.43534	48.9645
2.43419	48.8507
2.43305	48.9366
2.43191	49.1453
2.43077	49.2669
2.42963	49.2809
2.42849	49.3246
2.42736	49.4038
2.42622	49.4449
2.42509	49.388
2.42395	49.4454
2.42282	49.4276
2.42169	49.3684
2.42056	49.4762
2.41943	49.5863
2.4183	49.7127
2.41717	49.7337
2.41605	49.7231
2.41492	49.6457
2.4138	49.6911
2.41267	49.9049
2.41155	49.8317
2.41043	49.828
2.40931	49.9521
2.40819	49.8272
2.40707	49.7308
2.40595	49.6696
2.40484	49.7041
2.40372	49.6885
2.40261	49.6755
2.4015	49.7092
2.40039	49.8421
2.39928	49.987
2.39817	50.0438
2.39706	49.9998
2.39595	49.9329
2.39484	49.9141
2.39374	49.9804
2.39263	50.1185
2.39153	50.3213
2.39043	50.3978
2.38932	50.2742
2.38822	50.3122
2.38712	50.3263
2.38603	50.3305
2.38493	50.3366
2.38383	50.2546
2.38274	50.2386
2.38164	50.2278
2.38055	50.2679
2.37946	50.2678
2.37836	50.2258
2.37727	50.1859
2.37618	50.1659
2.3751	50.183
2.37401	50.0402
2.37292	49.9565
2.37184	49.9596
2.37075	50.003
2.36967	49.9898
2.36859	49.9009
2.3675	49.7894
2.36642	49.7766
2.36534	49.7502
2.36427	49.733
2.36319	49.7981
2.36211	49.7235
2.36104	49.5968
2.35996	49.5927
2.35889	49.5513
2.35781	49.6437
2.35674	49.6097
2.35567	49.5225
2.3546	49.6479
2.35353	49.6349
2.35247	49.5528
2.3514	49.5208
2.35033	49.6011
2.34927	49.6674
2.3482	49.6785
2.34714	49.7299
2.34608	49.8028
2.34502	49.724
2.34396	49.7546
2.3429	49.9997
2.34184	50.0591
2.34078	49.9889
2.33973	50.0901
2.33867	50.2088
2.33762	50.3248
2.33656	50.3125
2.33551	50.2195
2.33446	50.2549
2.33341	50.4204
2.33236	50.4624
2.33131	50.5446
2.33026	50.5905
2.32922	50.6866
2.32817	50.8216
2.32712	50.8391
2.32608	50.8169
2.32504	50.8562
2.324	50.8673
2.32295	50.8652
2.32191	50.9591
2.32087	51.0631
2.31984	51.1129
2.3188	51.2313
2.31776	51.2505
2.31673	51.2584
2.31569	51.351
2.31466	51.2771
2.31362	51.2466
2.31259	51.3528
2.31156	51.4245
2.31053	51.5507
2.3095	51.5691
2.30847	51.3855
2.30745	51.2902
2.30642	51.5013
2.3054	51.5803
2.30437	51.5121
2.30335	51.5646
2.30232	51.683
2.3013	51.7292
2.30028	51.8253
2.29926	51.7896
2.29824	51.7239
2.29722	51.7169
2.29621	51.7634
2.29519	51.8545
2.29417	52.0255
2.29316	52.128
2.29215	52.1674
2.29113	52.2538
2.29012	52.4258
2.28911	52.6099
2.2881	52.6807
2.28709	52.6794
2.28608	52.841
2.28507	52.9049
2.28407	52.938
2.28306	53.1244
2.28206	53.3366
2.28105	53.5688
2.28005	53.6576
2.27905	53.7123
2.27805	53.7849
2.27705	53.9597
2.27605	54.2387
2.27505	54.3663
2.27405	54.3786
2.27305	54.3253
2.27206	54.422
2.27106	54.5754
2.27007	54.6796
2.26907	54.6967
2.26808	54.7597
2.26709	54.8855
2.2661	55.0906
2.26511	55.3534
2.26412	55.2174
2.26313	55.0467
2.26214	55.0807
2.26116	55.1671
2.26017	55.3339
2.25919	55.3767
2.2582	55.3968
2.25722	55.64
2.25624	55.7452
2.25526	55.7163
2.25428	55.8725
2.2533	56.0238
2.25232	56.0962
2.25134	56.2075
2.25036	56.2317
2.24939	56.1759
2.24841	56.3376
2.24744	56.5636
2.24646	56.7104
2.24549	56.8584
2.24452	57.1463
2.24355	57.3557
2.24257	57.5209
2.24161	57.675
2.24064	58.0052
2.23967	58.263
2.2387	58.2259
2.23774	58.3193
2.23677	58.7333
2.23581	58.9487
2.23484	58.941
2.23388	58.9677
2.23292	59.1122
2.23196	59.3444
2.231	59.4462
2.23004	59.6923
2.22908	59.935
2.22812	59.9839
2.22716	60.0364
2.22621	60.1521
2.22525	60.2571
2.2243	60.2678
2.22334	60.3583
2.22239	60.4462
2.22144	60.6442
2.22049	60.7788
2.21953	60.6778
2.21859	60.7382
2.21764	60.8447
2.21669	60.8611
2.21574	60.871
2.21479	60.9624
2.21385	61.1531
2.2129	61.1819
2.21196	61.2006
2.21102	61.1576
2.21007	61.2413
2.20913	61.1646
2.20819	61.2706
2.20725	61.4076
2.20631	61.3991
2.20537	61.4047
2.20444	61.499
2.2035	61.5547
2.20256	61.5521
2.20163	61.3964
2.20069	61.3613
2.19976	61.4026
2.19883	61.4855
2.19789	61.4838
2.19696	61.5605
2.19603	61.6574
2.1951	61.8431
2.19417	61.9814
2.19325	62.0001
2.19232	62.019
2.19139	62.1686
2.19047	62.1798
2.18954	62.1495
2.18862	62.2319
2.18769	62.3951
2.18677	62.493
2.18585	62.5829
2.18493	62.6251
2.18401	62.4967
2.18309	62.6398
2.18217	62.7823
2.18125	62.7978
2.18033	62.7592
2.17942	62.8277
2.1785	62.8925
2.17759	62.9835
2.17667	63.0707
2.17576	63.0411
2.17485	63.0262
2.17393	63.063
2.17302	63.042
2.17211	63.0675
2.1712	63.25
2.17029	63.3667
2.16939	63.3992
2.16848	63.4088
2.16757	63.3765
2.16667	63.4032
2.16576	63.3982
2.16486	63.4412
2.16395	63.4015
2.16305	63.4714
2.16215	63.5419
2.16125	63.5674
2.16035	63.6194
2.15945	63.7475
2.15855	63.7668
2.15765	63.5793
2.15675	63.2724
2.15586	63.4766
2.15496	63.8509
2.15406	63.8795
2.15317	63.6957
2.15228	63.6998
2.15138	63.7526
2.15049	63.7272
2.1496	63.8061
2.14871	63.9752
2.14782	63.9634
2.14693	63.8177
2.14604	63.8402
2.14515	63.8188
2.14427	63.6588
2.14338	63.5781
2.14249	63.7512
2.14161	63.9532
2.14072	63.9474
2.13984	63.8241
2.13896	63.725
2.13808	63.7474
2.13719	63.9006
2.13631	63.7769
2.13543	63.6676
2.13455	63.7183
2.13368	63.5592
2.1328	63.522
2.13192	63.6221
2.13105	63.7867
2.13017	63.9359
2.1293	63.8341
2.12842	63.8146
2.12755	63.7207
2.12668	63.6906
2.1258	63.7913
2.12493	63.738
2.12406	63.8208
2.12319	63.9115
2.12232	63.9647
2.12145	63.8515
2.12059	63.8402
2.11972	63.8205
2.11885	63.6827
2.11799	63.707
2.11712	63.7437
2.11626	63.7758
2.1154	63.6569
2.11453	63.6696
2.11367	63.857
2.11281	63.8696
2.11195	63.61
2.11109	63.5533
2.11023	63.6303
2.10937	63.5922
2.10851	63.5819
2.10766	63.6229
2.1068	63.6951
2.10594	63.6535
2.10509	63.5114
2.10423	63.4993
2.10338	63.6532
2.10253	63.7585
2.10168	63.6283
2.10082	63.5519
2.09997	63.3776
2.09912	63.3367
2.09827	63.559
2.09742	63.6914
2.09658	63.734
2.09573	63.5898
2.09488	63.6421
2.09404	63.6323
2.09319	63.631
2.09235	63.6247
2.0915	63.5082
2.09066	63.5847
2.08982	63.495
2.08897	63.4077
2.08813	63.5192
2.08729	63.5021
2.08645	63.444
2.08561	63.2912
2.08477	63.0982
2.08394	63.0514
2.0831	63.2935
2.08226	63.2835
2.08143	63.2191
2.08059	63.1365
2.07976	63.2226
2.07892	63.1365
2.07809	62.9918
2.07726	63.0521
2.07643	62.9723
2.07559	63.266
2.07476	63.6566
2.07393	63.4105
2.0731	63.0914
2.07228	62.9308
2.07145	62.7494
2.07062	63.081
2.06979	63.3505
2.06897	63.0609
2.06814	62.6411
2.06732	62.6346
2.06649	62.8053
2.06567	62.3772
2.06485	62.1758
2.06403	62.4589
2.0632	62.5412
2.06238	62.2962
2.06156	62.3461
2.06074	62.4558
2.05993	62.3571
2.05911	62.3477
2.05829	62.353
2.05747	62.2157
2.05666	62.1103
2.05584	62.0779
2.05503	62.1631
2.05421	62.3059
2.0534	62.2008
2.05259	62.055
2.05177	61.8756
2.05096	61.8359
2.05015	61.9422
2.04934	61.8995
2.04853	61.7786
2.04772	61.6478
2.04691	61.5697
2.04611	61.6308
2.0453	61.7181
2.04449	61.6971
2.04369	61.6074
2.04288	61.4453
2.04208	61.5992
2.04127	61.649
2.04047	61.4151
2.03967	61.1199
2.03886	61.0019
2.03806	61.0384
2.03726	60.9247
2.03646	60.7869
2.03566	60.7031
2.03486	60.8695
2.03407	60.7935
2.03327	60.8009
2.03247	60.9376
2.03167	60.8074
2.03088	60.9264
2.03008	61.0501
2.02929	60.8493
2.0285	60.6499
2.0277	60.6043
2.02691	60.3411
2.02612	60.2223
2.02533	60.3431
2.02453	60.4737
2.02374	60.2952
2.02295	60.063
2.02217	60.0898
2.02138	60.071
2.02059	59.943
2.0198	59.7685
2.01902	59.6558
2.01823	59.6311
2.01744	59.6591
2.01666	59.6492
2.01588	59.6852
2.01509	59.6692
2.01431	59.3773
2.01353	59.1372
2.01275	59.1994
2.01196	59.3596
2.01118	59.3504
2.0104	59.2019
2.00963	59.0986
2.00885	59.159
2.00807	59.082
2.00729	58.9042
2.00651	58.8222
2.00574	58.7583
2.00496	58.934
2.00419	59.0597
2.00341	58.7418
2.00264	58.4711
2.00187	58.3658
2.00109	58.3641
2.00032	58.3909
