Name: Epidote Ca_2(Al,Fe^3+)_3O.SiO_4.Si_2O_7.OH
Type: Mineral
Class: Silicates
Subclass: Sorosilicate
Particle Size: 45-125um
Sample No.: SS-1A
Owner: JPL
Wavelength range: IR
Origin: Mexico, Baja California Norte, Valle De La Trinidad
Collected by Burminco
Description: 





Measurement: Hemispherical reflectance
First Column: X
Second Column: Y
X Units:  Wavelength (micrometers)
Y Units:  Reflectance (percent)
First X Value: 15.3853
Last X Value: 2.00032
Number of X Values: 2256
Additional information: ss01aa.txt
 
15.3853	13.6836
15.3397	14.2146
15.2945	14.0885
15.2495	13.8243
15.2048	13.6845
15.1603	13.2573
15.1161	12.6989
15.0722	12.3392
15.0285	11.8747
14.9851	11.0736
14.9419	9.95442
14.8989	8.87919
14.8563	8.01343
14.8138	7.54658
14.7716	7.48365
14.7296	7.3974
14.6879	7.0238
14.6464	6.75281
14.6052	6.66682
14.5641	6.82481
14.5233	6.87992
14.4828	6.94444
14.4424	6.9626
14.4023	6.49457
14.3624	5.83526
14.3227	5.44299
14.2833	5.12231
14.244	4.59581
14.205	4.07145
14.1662	3.77396
14.1276	3.43601
14.0892	3.11461
14.051	2.9161
14.0131	2.78896
13.9753	2.61534
13.9377	2.59965
13.9004	2.85797
13.8632	2.82964
13.8262	2.75437
13.7895	2.78369
13.7529	2.48083
13.7165	2.22829
13.6803	2.14003
13.6443	1.96355
13.6085	2.00396
13.5729	2.33752
13.5374	2.39163
13.5022	2.3449
13.4671	2.68298
13.4322	2.94689
13.3975	2.89112
13.363	3.03369
13.3286	3.30707
13.2944	3.43771
13.2604	3.36603
13.2266	3.33329
13.193	3.55474
13.1595	3.74546
13.1262	3.81757
13.093	3.96432
13.06	3.86452
13.0272	3.90553
12.9946	4.05174
12.9621	4.06764
12.9298	4.2561
12.8976	4.45177
12.8656	4.62478
12.8337	4.65388
12.8021	4.63638
12.7705	4.73739
12.7391	4.79636
12.7079	4.86719
12.6769	4.86775
12.6459	4.986
12.6152	5.19198
12.5845	5.26491
12.5541	5.36636
12.5238	5.57906
12.4936	5.62663
12.4635	5.74218
12.4337	5.8848
12.4039	5.90628
12.3743	5.95186
12.3448	6.05649
12.3155	6.30029
12.2863	6.51653
12.2573	6.60039
12.2284	6.68915
12.1996	6.76939
12.171	6.95752
12.1425	7.27209
12.1141	7.46144
12.0859	7.68383
12.0578	8.03578
12.0298	8.35413
12.0019	8.56244
11.9742	8.66548
11.9466	8.70247
11.9192	8.61898
11.8918	8.5328
11.8646	8.56427
11.8375	8.47113
11.8106	8.47715
11.7837	8.64253
11.757	9.01022
11.7304	9.4572
11.7039	9.90037
11.6776	10.228
11.6513	10.4242
11.6252	10.5143
11.5992	10.462
11.5733	10.3156
11.5475	10.1553
11.5219	10.1387
11.4963	10.6426
11.4709	11.4855
11.4455	12.4409
11.4203	13.564
11.3952	14.6964
11.3702	15.7672
11.3454	16.5909
11.3206	17.171
11.2959	17.5734
11.2714	17.7493
11.2469	17.6757
11.2226	17.524
11.1983	17.3186
11.1742	16.861
11.1502	16.0742
11.1263	15.1868
11.1024	14.5834
11.0787	14.2832
11.0551	14.0056
11.0316	13.4215
11.0081	12.7997
10.9848	12.3861
10.9616	11.9474
10.9385	11.602
10.9154	11.3432
10.8925	10.9424
10.8697	10.5753
10.8469	10.1481
10.8243	9.74723
10.8017	9.82222
10.7793	10.3323
10.7569	10.997
10.7346	11.9126
10.7125	12.9571
10.6904	14.0561
10.6684	15.1524
10.6465	16.2302
10.6247	17.3455
10.6029	18.7657
10.5813	20.3264
10.5597	21.7464
10.5383	23.2129
10.5169	24.6466
10.4956	25.8587
10.4744	26.7568
10.4533	27.3509
10.4323	27.5686
10.4113	27.6448
10.3904	27.678
10.3697	27.5179
10.349	27.1645
10.3284	26.7086
10.3078	26.0493
10.2874	25.1282
10.267	23.9183
10.2467	22.7811
10.2265	21.8342
10.2064	20.9894
10.1863	20.4034
10.1663	19.9088
10.1464	19.3941
10.1266	18.8109
10.1069	18.03
10.0872	17.1983
10.0676	16.2128
10.0481	14.9786
10.0287	13.5027
10.0093	11.6114
9.99005	9.59535
9.97084	7.64777
9.95169	5.94396
9.93263	4.51876
9.91364	3.39011
9.89472	2.66977
9.87587	2.16129
9.8571	1.91461
9.83839	1.9415
9.81976	2.05967
9.80119	2.30002
9.78271	2.58084
9.76428	2.86303
9.74592	3.36853
9.72764	4.00296
9.70943	4.79377
9.69128	5.88408
9.6732	7.02832
9.65518	8.08275
9.63724	8.93058
9.61935	9.58923
9.60155	10.0657
9.5838	10.4827
9.56611	10.7332
9.5485	10.9541
9.53094	11.4375
9.51345	11.9422
9.49604	12.1763
9.47867	12.4199
9.46137	12.6623
9.44414	12.6776
9.42697	12.4633
9.40986	12.274
9.39281	12.0708
9.37583	11.587
9.35891	11.0534
9.34204	10.6707
9.32524	10.1311
9.3085	9.69211
9.29182	9.50395
9.27519	9.37038
9.25863	9.34377
9.24213	9.44111
9.22568	9.543
9.2093	9.42096
9.19297	9.28471
9.17669	9.39717
9.16048	9.34344
9.14433	9.09979
9.12823	8.93545
9.11218	8.79464
9.0962	8.76666
9.08027	8.93123
9.06439	9.18368
9.04858	9.2994
9.03281	9.36452
9.0171	9.47064
9.00145	9.51471
8.98585	9.56988
8.9703	9.57032
8.9548	9.44569
8.93937	9.30335
8.92398	9.11756
8.90865	8.80546
8.89337	8.29186
8.87814	7.85899
8.86296	7.59977
8.84784	7.19369
8.83277	6.84101
8.81774	6.64561
8.80277	6.27048
8.78786	5.82577
8.77298	5.52291
8.75816	5.33261
8.7434	4.93609
8.72868	4.42805
8.714	3.75643
8.69938	3.07033
8.68481	2.5887
8.67029	2.2128
8.65581	1.8047
8.64139	1.39938
8.62701	1.21132
8.61268	1.19417
8.5984	1.15239
8.58416	1.08977
8.56997	1.01666
8.55583	0.83497
8.54174	0.746328
8.52769	0.769479
8.51368	0.84962
8.49973	0.900015
8.48582	0.843888
8.47195	0.864185
8.45813	0.934395
8.44436	0.868538
8.43062	0.902997
8.41693	1.02533
8.4033	1.03095
8.3897	1.04451
8.37614	1.0588
8.36264	1.15273
8.34917	1.25366
8.33574	1.25635
8.32236	1.32512
8.30903	1.33774
8.29573	1.36098
8.28248	1.41427
8.26927	1.34666
8.2561	1.29526
8.24298	1.37113
8.2299	1.43421
8.21685	1.53821
8.20385	1.67917
8.19089	1.69671
8.17797	1.72992
8.16509	1.81874
8.15225	1.87166
8.13946	1.90236
8.1267	2.03774
8.11398	2.12287
8.10131	2.12516
8.08867	2.08929
8.07606	2.08611
8.0635	2.1499
8.05099	2.24474
8.0385	2.24525
8.02606	2.24897
8.01366	2.34117
8.00129	2.46528
7.98896	2.4463
7.97667	2.46996
7.96442	2.6112
7.9522	2.71101
7.94002	2.70087
7.92788	2.76992
7.91578	2.9124
7.90371	2.90577
7.89168	2.98279
7.87969	3.02475
7.86773	3.09851
7.85581	3.19807
7.84392	3.28444
7.83207	3.36376
7.82026	3.41145
7.80849	3.53515
7.79674	3.63431
7.78503	3.69679
7.77337	3.64451
7.76173	3.72823
7.75012	3.98343
7.73856	4.18065
7.72703	4.21717
7.71553	4.28486
7.70406	4.33148
7.69263	4.40644
7.68123	4.51246
7.66987	4.6224
7.65855	4.89537
7.64725	5.1372
7.63598	5.2521
7.62475	5.38498
7.61356	5.46902
7.60239	5.49641
7.59126	5.59293
7.58017	5.64464
7.5691	5.78111
7.55806	5.98099
7.54707	6.09149
7.5361	6.17276
7.52516	6.29731
7.51425	6.39792
7.50338	6.42119
7.49253	6.55369
7.48172	6.68328
7.47094	6.76797
7.46019	6.86368
7.44947	6.99444
7.43879	7.13975
7.42813	7.19053
7.4175	7.2519
7.4069	7.33052
7.39634	7.35909
7.3858	7.47783
7.37529	7.60952
7.36482	7.65119
7.35437	7.73483
7.34396	7.7912
7.33357	7.85677
7.32321	7.92171
7.31288	8.01239
7.30258	8.1376
7.29231	8.27414
7.28207	8.38135
7.27185	8.46042
7.26167	8.52827
7.25152	8.59463
7.24139	8.60743
7.23129	8.69008
7.22122	8.88536
7.21117	9.03658
7.20116	9.03126
7.19117	8.99014
7.18121	9.01941
7.17128	9.08163
7.16137	9.10206
7.1515	9.09853
7.14164	9.11238
7.13182	9.18064
7.12203	9.2757
7.11225	9.24987
7.10251	9.28528
7.0928	9.4129
7.08311	9.48962
7.07344	9.6086
7.06381	9.76866
7.0542	9.98739
7.04461	10.2652
7.03506	10.2864
7.02552	10.2503
7.01601	10.3715
7.00653	10.4853
6.99708	10.6057
6.98765	10.6543
6.97824	10.6241
6.96886	10.851
6.95951	11.1695
6.95018	10.9592
6.94087	10.7717
6.9316	10.825
6.92234	10.9789
6.91311	11.1635
6.90391	11.2746
6.89473	11.2473
6.88557	11.3325
6.87644	11.5084
6.86733	12.0284
6.85824	12.0945
6.84918	11.6382
6.84015	11.5203
6.83114	11.7154
6.82215	11.8706
6.81319	11.7784
6.80424	11.7066
6.79532	11.9877
6.78643	12.1563
6.77756	12.0008
6.76871	11.8776
6.75989	11.8394
6.75109	11.8549
6.74231	11.8674
6.73355	12.0203
6.72482	12.2189
6.71611	12.2108
6.70742	12.1473
6.69875	12.0412
6.69011	12.166
6.68149	12.4529
6.67289	12.2984
6.66431	12.043
6.65576	12.047
6.64722	12.5321
6.63871	13.0767
6.63022	12.7761
6.62175	12.3456
6.61331	12.2436
6.60488	12.2642
6.59648	12.4473
6.5881	12.4357
6.57974	12.57
6.5714	12.8287
6.56308	12.5914
6.55478	12.6001
6.54651	12.5802
6.53825	12.5212
6.53001	12.6594
6.5218	12.9057
6.51361	12.8781
6.50544	13.0229
6.49729	13.5972
6.48915	13.6607
6.48104	13.3205
6.47295	13.1814
6.46488	13.0426
6.45683	13.1167
6.4488	13.316
6.44079	13.4905
6.4328	13.8252
6.42482	14.1629
6.41687	14.8901
6.40894	14.9213
6.40103	14.3767
6.39314	14.279
6.38526	14.266
6.37741	14.3633
6.36957	14.6007
6.36176	14.427
6.35396	14.4757
6.34618	14.9769
6.33843	14.8336
6.33069	14.4168
6.32297	14.3786
6.31527	14.3709
6.30758	14.3727
6.29992	14.3666
6.29227	14.2922
6.28465	14.2239
6.27704	14.2204
6.26945	14.2216
6.26188	14.2166
6.25432	14.1412
6.24679	14.1145
6.23927	14.1249
6.23177	14.1681
6.22429	14.2939
6.21683	14.3417
6.20938	14.3053
6.20195	14.1916
6.19454	14.2531
6.18715	14.6727
6.17978	14.5055
6.17242	14.1094
6.16508	14.1227
6.15776	14.0546
6.15045	13.8009
6.14317	13.7101
6.1359	13.5282
6.12864	13.3149
6.12141	13.3946
6.11419	13.6538
6.10699	13.2882
6.0998	12.7468
6.09263	12.5659
6.08549	12.4905
6.07835	12.5822
6.07123	12.5302
6.06413	12.1391
6.05705	12.2839
6.04998	12.7843
6.04293	12.0914
6.0359	11.2756
6.02888	10.9445
6.02187	10.8401
6.01489	10.7529
6.00792	10.3555
6.00096	10.027
5.99403	10.0052
5.98711	9.82363
5.9802	9.34997
5.97331	9.10213
5.96644	8.98427
5.95958	8.61712
5.95274	8.38347
5.94591	8.33935
5.9391	8.60032
5.9323	8.42276
5.92552	8.03711
5.91876	7.96587
5.91201	8.01071
5.90528	8.19015
5.89856	8.54664
5.89186	8.56115
5.88517	8.72647
5.8785	8.86976
5.87184	8.58481
5.8652	8.59834
5.85857	8.58196
5.85196	8.60536
5.84536	8.68392
5.83878	8.75125
5.83221	8.88425
5.82566	9.21907
5.81912	9.22386
5.81259	8.8818
5.80608	8.77153
5.79959	8.69398
5.79311	8.70995
5.78665	8.81484
5.78019	8.77637
5.77376	8.80275
5.76734	9.08099
5.76093	8.89429
5.75453	8.68775
5.74815	8.77202
5.74179	8.60331
5.73543	8.56997
5.7291	8.58411
5.72277	8.66708
5.71646	8.70258
5.71017	8.77114
5.70389	8.65262
5.69762	8.61497
5.69136	8.65949
5.68513	8.56264
5.6789	8.57304
5.67268	8.6392
5.66648	8.59403
5.6603	8.58634
5.65413	8.63546
5.64797	8.81525
5.64182	9.02581
5.63569	8.85052
5.62957	8.71859
5.62347	8.82268
5.61737	8.99653
5.61129	9.10871
5.60522	9.15841
5.59917	9.18789
5.59313	9.27068
5.5871	9.60308
5.58109	9.9034
5.57509	9.97043
5.5691	10.0546
5.56312	10.3118
5.55716	10.6306
5.55121	10.9135
5.54528	11.0704
5.53935	11.2404
5.53344	11.5473
5.52754	11.8829
5.52166	12.1086
5.51578	12.3097
5.50992	12.5656
5.50407	12.8128
5.49823	12.9961
5.49241	13.2063
5.4866	13.4281
5.4808	13.7192
5.47501	13.8655
5.46923	14.1005
5.46347	14.3696
5.45772	14.406
5.45198	14.4772
5.44625	14.6351
5.44054	14.7196
5.43484	14.8211
5.42914	15.0735
5.42347	15.3744
5.4178	15.3423
5.41214	15.2472
5.4065	15.2938
5.40087	15.36
5.39525	15.4376
5.38964	15.4957
5.38404	15.5352
5.37846	15.5664
5.37288	15.539
5.36732	15.5365
5.36177	15.5003
5.35623	15.4917
5.35071	15.5281
5.34519	15.4086
5.33968	15.3314
5.33419	15.3254
5.32871	15.2975
5.32324	15.3029
5.31778	15.2814
5.31233	15.232
5.30689	15.2216
5.30147	15.2494
5.29605	15.2123
5.29065	15.1748
5.28525	15.0207
5.27987	14.9685
5.2745	14.8971
5.26914	14.7947
5.26379	14.6932
5.25845	14.5861
5.25312	14.4534
5.24781	14.297
5.2425	14.237
5.23721	14.1961
5.23192	14.0601
5.22665	13.9909
5.22138	13.9921
5.21613	13.9926
5.21089	13.9261
5.20566	13.9031
5.20044	13.9838
5.19522	14.0752
5.19002	14.2233
5.18483	14.3729
5.17965	14.6233
5.17448	14.9394
5.16933	15.2034
5.16418	15.4573
5.15904	15.7517
5.15391	16.0979
5.14879	16.4142
5.14368	16.6059
5.13859	16.6727
5.1335	16.6954
5.12842	16.7351
5.12335	16.763
5.1183	16.7591
5.11325	16.7907
5.10821	16.8272
5.10318	16.7587
5.09817	16.6338
5.09316	16.5114
5.08816	16.4582
5.08317	16.5028
5.07819	16.5751
5.07322	16.575
5.06826	16.5416
5.06331	16.5426
5.05837	16.4089
5.05344	16.2874
5.04852	16.2899
5.04361	16.3356
5.03871	16.3865
5.03382	16.3157
5.02894	16.1151
5.02406	16.0825
5.0192	16.0916
5.01435	16.0035
5.0095	15.9243
5.00467	15.8392
4.99984	15.5876
4.99502	15.2411
4.99021	14.9675
4.98542	14.6911
4.98063	14.3133
4.97585	13.8729
4.97108	13.5072
4.96632	13.1931
4.96156	12.941
4.95682	12.776
4.95209	12.6151
4.94736	12.5982
4.94264	12.6547
4.93794	12.6693
4.93324	12.6175
4.92855	12.682
4.92387	12.772
4.9192	12.8257
4.91453	12.9297
4.90988	12.9639
4.90524	12.9986
4.9006	13.0945
4.89597	13.1318
4.89135	13.0642
4.88674	13.0477
4.88214	13.1258
4.87755	13.1923
4.87296	13.3519
4.86839	13.7104
4.86382	14.1063
4.85926	14.5068
4.85471	14.8848
4.85017	15.2346
4.84564	15.5378
4.84111	15.7867
4.8366	16.0787
4.83209	16.2283
4.82759	16.3142
4.8231	16.4621
4.81862	16.6349
4.81415	16.7569
4.80968	16.8867
4.80522	17.1423
4.80077	17.4485
4.79633	17.685
4.7919	17.9339
4.78747	18.2848
4.78306	18.7597
4.77865	19.2718
4.77425	19.8053
4.76986	20.3834
4.76547	20.9741
4.7611	21.5416
4.75673	22.1138
4.75237	22.6422
4.74802	23.1139
4.74367	23.5957
4.73934	24.0798
4.73501	24.5346
4.73069	24.8368
4.72638	25.0769
4.72207	25.292
4.71777	25.4245
4.71348	25.4309
4.7092	25.49
4.70493	25.6098
4.70066	25.723
4.69641	25.7223
4.69216	25.6935
4.68791	25.7933
4.68368	25.9892
4.67945	26.1469
4.67523	26.2673
4.67102	26.4097
4.66682	26.5664
4.66262	26.6502
4.65843	26.6723
4.65425	26.7216
4.65007	26.6932
4.64591	26.6633
4.64175	26.5735
4.6376	26.4504
4.63345	26.3481
4.62932	26.2173
4.62519	26.1304
4.62106	26.0678
4.61695	26.0145
4.61284	26.0069
4.60874	26.0249
4.60465	26.1549
4.60056	26.3181
4.59648	26.5775
4.59241	26.9718
4.58835	27.4275
4.58429	27.8426
4.58024	28.3587
4.5762	28.9319
4.57216	29.4808
4.56814	30.1022
4.56411	30.7118
4.5601	31.3252
4.55609	31.8912
4.55209	32.3996
4.5481	32.9353
4.54411	33.4806
4.54013	33.966
4.53616	34.4509
4.5322	34.9683
4.52824	35.4497
4.52429	35.965
4.52034	36.479
4.51641	36.9117
4.51247	37.3134
4.50855	37.717
4.50463	38.2025
4.50072	38.687
4.49682	39.1285
4.49292	39.5573
4.48903	39.9604
4.48515	40.3947
4.48127	40.7968
4.4774	41.2516
4.47354	41.6685
4.46968	41.9661
4.46584	42.2667
4.46199	42.6355
4.45815	42.9906
4.45432	43.2555
4.4505	43.5336
4.44668	43.8235
4.44287	43.9982
4.43907	44.1468
4.43527	44.395
4.43148	44.6734
4.4277	44.8469
4.42392	44.9879
4.42015	45.1582
4.41638	45.3273
4.41262	45.4637
4.40887	45.5929
4.40513	45.7016
4.40139	45.884
4.39765	46.0687
4.39393	46.2266
4.39021	46.3295
4.38649	46.4541
4.38278	46.5665
4.37908	46.679
4.37539	46.8324
4.3717	46.9741
4.36801	47.0831
4.36434	47.237
4.36067	47.367
4.357	47.4291
4.35335	47.4953
4.34969	47.5448
4.34605	47.6376
4.34241	47.7975
4.33877	47.9291
4.33514	47.9831
4.33152	48.0273
4.32791	48.0625
4.3243	48.0588
4.32069	48.1518
4.3171	48.2188
4.31351	48.3023
4.30992	48.4535
4.30634	48.5962
4.30277	48.6402
4.2992	48.6386
4.29564	48.7263
4.29208	48.837
4.28853	48.901
4.28499	48.9729
4.28145	49.0904
4.27792	49.109
4.27439	49.081
4.27087	49.0395
4.26735	49.0749
4.26384	49.1201
4.26034	49.0927
4.25684	49.1195
4.25335	49.1869
4.24986	49.2779
4.24638	49.4159
4.24291	49.5249
4.23944	49.5672
4.23598	49.6345
4.23252	49.6893
4.22906	49.7136
4.22562	49.7126
4.22218	49.714
4.21874	49.7334
4.21531	49.7789
4.21189	49.8057
4.20847	49.8805
4.20506	49.9332
4.20165	49.9733
4.19825	50.0418
4.19485	50.1364
4.19146	50.2717
4.18807	50.379
4.18469	50.4372
4.18132	50.4707
4.17795	50.5405
4.17458	50.6845
4.17123	50.8165
4.16787	50.8481
4.16453	50.8012
4.16118	50.8156
4.15785	50.8623
4.15451	50.9368
4.15119	50.9645
4.14787	51.0307
4.14455	51.1571
4.14124	51.1544
4.13794	51.1002
4.13464	51.0991
4.13134	51.0978
4.12805	51.1907
4.12477	51.2736
4.12149	51.2774
4.11822	51.3126
4.11495	51.3215
4.11168	51.2643
4.10843	51.2739
4.10517	51.331
4.10192	51.3346
4.09868	51.2929
4.09545	51.2522
4.09221	51.167
4.08899	51.1292
4.08576	51.1928
4.08255	51.2421
4.07933	51.1725
4.07613	51.0998
4.07292	51.0698
4.06973	51.0376
4.06654	50.9865
4.06335	50.9879
4.06017	51.0228
4.05699	50.946
4.05382	50.8549
4.05065	50.8403
4.04749	50.8131
4.04433	50.6722
4.04118	50.5455
4.03803	50.3989
4.03489	50.2604
4.03175	50.1304
4.02862	50.051
4.02549	49.8898
4.02237	49.6854
4.01925	49.5664
4.01614	49.3385
4.01303	49.0602
4.00993	48.7692
4.00683	48.4648
4.00373	48.2023
4.00064	48.0363
3.99756	47.9112
3.99448	47.9071
3.9914	47.9276
3.98833	48.0347
3.98527	48.2618
3.98221	48.4016
3.97915	48.5152
3.9761	48.6578
3.97305	48.8206
3.97001	49.0194
3.96697	49.2195
3.96394	49.3925
3.96091	49.5553
3.95789	49.7095
3.95487	49.8078
3.95186	49.9446
3.94885	50.0824
3.94584	50.145
3.94284	50.2437
3.93984	50.3696
3.93685	50.4129
3.93386	50.4391
3.93088	50.5873
3.9279	50.6907
3.92493	50.7083
3.92196	50.803
3.919	50.974
3.91604	51.0491
3.91308	51.0883
3.91013	51.1278
3.90718	51.1786
3.90424	51.2344
3.9013	51.2928
3.89837	51.2968
3.89544	51.2795
3.89252	51.3645
3.8896	51.4744
3.88668	51.513
3.88377	51.535
3.88086	51.5237
3.87796	51.4889
3.87506	51.5483
3.87217	51.5685
3.86928	51.5367
3.86639	51.4858
3.86351	51.4268
3.86064	51.425
3.85776	51.4401
3.8549	51.4546
3.85203	51.4651
3.84917	51.44
3.84631	51.4068
3.84346	51.4392
3.84062	51.4652
3.83777	51.5188
3.83494	51.6145
3.8321	51.6213
3.82927	51.6215
3.82644	51.6108
3.82362	51.592
3.82081	51.608
3.81799	51.6762
3.81518	51.6463
3.81238	51.5705
3.80958	51.5777
3.80678	51.6278
3.80399	51.6087
3.8012	51.5886
3.79841	51.5541
3.79563	51.5038
3.79286	51.5416
3.79008	51.5868
3.78731	51.5527
3.78455	51.5261
3.78179	51.4599
3.77903	51.3826
3.77628	51.4054
3.77353	51.4088
3.77079	51.3336
3.76805	51.2753
3.76531	51.2307
3.76258	51.1333
3.75985	51.0686
3.75713	51.0312
3.7544	50.9921
3.75169	50.888
3.74898	50.8219
3.74627	50.7203
3.74356	50.6012
3.74086	50.4588
3.73816	50.366
3.73547	50.2722
3.73278	50.2041
3.7301	50.1792
3.72741	50.0731
3.72474	50.0016
3.72206	49.9862
3.71939	49.862
3.71673	49.7605
3.71406	49.7384
3.71141	49.6663
3.70875	49.5645
3.7061	49.5166
3.70345	49.5462
3.70081	49.4924
3.69817	49.4184
3.69553	49.3868
3.6929	49.3162
3.69027	49.3014
3.68765	49.3191
3.68503	49.336
3.68241	49.3802
3.6798	49.4355
3.67719	49.4295
3.67458	49.4103
3.67198	49.4251
3.66938	49.4293
3.66678	49.4533
3.66419	49.4929
3.66161	49.5613
3.65902	49.5772
3.65644	49.559
3.65387	49.5878
3.65129	49.6006
3.64872	49.598
3.64616	49.6028
3.64359	49.6055
3.64103	49.5158
3.63848	49.483
3.63593	49.4751
3.63338	49.4744
3.63084	49.4503
3.6283	49.3605
3.62576	49.2632
3.62322	49.2319
3.62069	49.2467
3.61817	49.2548
3.61564	49.2043
3.61312	49.1249
3.61061	49.0979
3.6081	49.0038
3.60559	48.9002
3.60308	48.8048
3.60058	48.7498
3.59808	48.6957
3.59558	48.6728
3.59309	48.617
3.59061	48.6074
3.58812	48.5807
3.58564	48.4833
3.58316	48.3232
3.58069	48.271
3.57822	48.2774
3.57575	48.235
3.57328	48.138
3.57082	48.0231
3.56836	47.9374
3.56591	47.8751
3.56346	47.7791
3.56101	47.747
3.55857	47.71
3.55613	47.6232
3.55369	47.5289
3.55126	47.4367
3.54883	47.3099
3.5464	47.1505
3.54397	47.0465
3.54155	47.0027
3.53914	46.8861
3.53672	46.7182
3.53431	46.5889
3.5319	46.4905
3.5295	46.3525
3.5271	46.1721
3.5247	46.0098
3.52231	45.8086
3.51991	45.6875
3.51753	45.5531
3.51514	45.3328
3.51276	45.1008
3.51038	44.8476
3.50801	44.7241
3.50563	44.527
3.50327	44.3595
3.5009	44.1724
3.49854	43.9233
3.49618	43.6964
3.49382	43.5493
3.49147	43.403
3.48912	43.2782
3.48677	43.1187
3.48443	42.9439
3.48209	42.7887
3.47975	42.6524
3.47742	42.5946
3.47509	42.5222
3.47276	42.2783
3.47044	42.0525
3.46812	41.9877
3.4658	41.8821
3.46348	41.7011
3.46117	41.5059
3.45886	41.3457
3.45656	41.1764
3.45425	40.9405
3.45195	40.7187
3.44966	40.5344
3.44736	40.355
3.44507	40.1729
3.44279	40.0081
3.4405	39.7972
3.43822	39.6363
3.43594	39.5259
3.43367	39.416
3.43139	39.3451
3.42912	39.2393
3.42686	39.0182
3.42459	38.7939
3.42233	38.6717
3.42007	38.6307
3.41782	38.6148
3.41557	38.5874
3.41332	38.5764
3.41108	38.568
3.40883	38.5424
3.40659	38.5954
3.40435	38.6793
3.40212	38.7103
3.39989	38.7309
3.39766	38.7901
3.39544	38.7609
3.39322	38.7143
3.391	38.6507
3.38878	38.6579
3.38657	38.7052
3.38436	38.6594
3.38215	38.4861
3.37994	38.3122
3.37774	38.174
3.37554	38.0582
3.37335	37.8967
3.37115	37.6608
3.36896	37.4616
3.36678	37.3098
3.36459	37.1744
3.36241	37.0384
3.36023	36.9215
3.35805	36.8432
3.35588	36.7308
3.35371	36.5659
3.35154	36.4321
3.34938	36.2866
3.34721	36.0864
3.34505	35.8664
3.3429	35.6189
3.34074	35.476
3.33859	35.3417
3.33644	35.1668
3.3343	35.0254
3.33215	34.8611
3.33001	34.7418
3.32788	34.6091
3.32574	34.5005
3.32361	34.337
3.32148	34.1185
3.31936	33.8534
3.31723	33.6291
3.31511	33.566
3.31299	33.4189
3.31088	33.175
3.30876	32.9457
3.30665	32.6787
3.30455	32.3835
3.30244	32.078
3.30034	31.8274
3.29824	31.5824
3.29614	31.2658
3.29405	30.8977
3.29196	30.5248
3.28987	30.1166
3.28778	29.7343
3.2857	29.384
3.28362	29.0845
3.28154	28.7753
3.27946	28.4742
3.27739	28.2001
3.27532	28.0015
3.27325	27.8034
3.27119	27.6078
3.26913	27.5188
3.26707	27.3923
3.26501	27.2413
3.26295	27.1961
3.2609	27.1317
3.25885	26.9498
3.2568	26.6957
3.25476	26.4888
3.25272	26.3279
3.25068	26.2869
3.24864	26.2375
3.24661	26.0361
3.24458	25.8869
3.24255	25.891
3.24052	25.8871
3.2385	25.7443
3.23648	25.5293
3.23446	25.3257
3.23244	25.085
3.23043	24.878
3.22841	24.6114
3.2264	24.3706
3.2244	24.2232
3.22239	23.9237
3.22039	23.6369
3.21839	23.4401
3.2164	23.1839
3.2144	22.9234
3.21241	22.6475
3.21042	22.5119
3.20844	22.3301
3.20645	21.8918
3.20447	21.5175
3.20249	21.3146
3.20051	20.9808
3.19854	20.5669
3.19657	20.2302
3.1946	20.0456
3.19263	19.839
3.19067	19.6245
3.1887	19.4314
3.18674	19.2506
3.18479	19.0073
3.18283	18.7349
3.18088	18.5336
3.17893	18.4174
3.17698	18.3699
3.17504	18.2331
3.17309	18.0631
3.17115	17.9108
3.16921	17.711
3.16728	17.5789
3.16534	17.3459
3.16341	17.2701
3.16148	17.3651
3.15956	17.2618
3.15763	17.0652
3.15571	16.9979
3.15379	16.8062
3.15187	16.6491
3.14996	16.6124
3.14805	16.4518
3.14614	16.2765
3.14423	16.1305
3.14232	15.8988
3.14042	15.5439
3.13852	15.2302
3.13662	15.0082
3.13472	14.8787
3.13283	14.6935
3.13094	14.5564
3.12905	14.2883
3.12716	13.9662
3.12528	13.7425
3.12339	13.5409
3.12151	13.3153
3.11964	12.9802
3.11776	12.7526
3.11589	12.6115
3.11401	12.4599
3.11214	12.3194
3.11028	12.0828
3.10841	11.8072
3.10655	11.6751
3.10469	11.5515
3.10283	11.4183
3.10098	11.3401
3.09912	11.2879
3.09727	11.2115
3.09542	11.096
3.09358	10.9268
3.09173	10.8242
3.08989	10.6641
3.08805	10.4382
3.08621	10.3091
3.08437	10.3598
3.08254	10.3912
3.08071	10.2952
3.07888	10.2293
3.07705	10.169
3.07523	10.0387
3.0734	9.89782
3.07158	9.89396
3.06977	9.90085
3.06795	9.90441
3.06613	9.92173
3.06432	9.88461
3.06251	9.75673
3.0607	9.77463
3.0589	9.91051
3.0571	9.81164
3.05529	9.71137
3.05349	9.55762
3.0517	9.44243
3.0499	9.4392
3.04811	9.4165
3.04632	9.49043
3.04453	9.58003
3.04274	9.5599
3.04096	9.45502
3.03918	9.47769
3.0374	9.54366
3.03562	9.49944
3.03384	9.44234
3.03207	9.5488
3.03029	9.48352
3.02852	9.33454
3.02676	9.31168
3.02499	9.30746
3.02323	9.25479
3.02146	9.11622
3.0197	9.00966
3.01795	9.02892
3.01619	8.94564
3.01444	8.87097
3.01269	8.87028
3.01094	8.78007
3.00919	8.66304
3.00744	8.50099
3.0057	8.45382
3.00396	8.54353
3.00222	8.33299
3.00048	8.13079
2.99875	8.2141
2.99701	8.25884
2.99528	8.16526
2.99355	8.07582
2.99183	7.88279
2.9901	7.85996
2.98838	7.9342
2.98666	7.86802
2.98494	7.88937
2.98322	7.76086
2.9815	7.62331
2.97979	7.62903
2.97808	7.62744
2.97637	7.547
2.97466	7.47763
2.97295	7.45868
2.97125	7.33172
2.96955	7.28353
2.96785	7.2063
2.96615	7.13503
2.96446	7.11198
2.96276	6.88771
2.96107	6.74831
2.95938	6.66444
2.95769	6.50238
2.95601	6.45838
2.95432	6.48096
2.95264	6.53771
2.95096	6.61368
2.94928	6.54192
2.9476	6.56994
2.94593	6.62254
2.94425	6.62622
2.94258	6.59997
2.94092	6.7468
2.93925	6.89482
2.93758	6.95193
2.93592	7.009
2.93426	7.14032
2.9326	7.31943
2.93094	7.37382
2.92928	7.40623
2.92763	7.4417
2.92598	7.4864
2.92433	7.51699
2.92268	7.6127
2.92103	7.77324
2.91939	7.96435
2.91775	8.12091
2.9161	8.19185
2.91447	8.16347
2.91283	8.12652
2.91119	8.27243
2.90956	8.43683
2.90793	8.43829
2.9063	8.35044
2.90467	8.50897
2.90304	8.61151
2.90142	8.55741
2.89979	8.54463
2.89817	8.51256
2.89656	8.58003
2.89494	8.64852
2.89332	8.58833
2.89171	8.58244
2.8901	8.7113
2.88849	8.80777
2.88688	8.8731
2.88527	8.85881
2.88367	8.74887
2.88206	8.82562
2.88046	8.88436
2.87886	9.01016
2.87727	9.20846
2.87567	9.25358
2.87408	9.35066
2.87248	9.47428
2.87089	9.55637
2.8693	9.78794
2.86772	10.0772
2.86613	10.2396
2.86455	10.2793
2.86297	10.4409
2.86139	10.5746
2.85981	10.6946
2.85823	11.0078
2.85666	11.239
2.85508	11.3861
2.85351	11.6879
2.85194	11.9113
2.85038	12.0337
2.84881	12.2743
2.84724	12.5081
2.84568	12.7794
2.84412	13.0312
2.84256	13.3598
2.841	13.7403
2.83945	14.0685
2.83789	14.231
2.83634	14.6764
2.83479	15.0247
2.83324	15.2988
2.83169	15.601
2.83015	16.0169
2.82861	16.5274
2.82706	16.9158
2.82552	17.2095
2.82398	17.5514
2.82245	17.771
2.82091	18.0367
2.81938	18.5078
2.81784	18.7341
2.81631	18.9441
2.81479	19.4957
2.81326	19.9503
2.81173	20.1567
2.81021	20.2864
2.80869	20.4291
2.80716	20.5986
2.80565	20.8679
2.80413	21.2139
2.80261	21.5276
2.8011	21.6229
2.79959	21.7295
2.79808	21.9325
2.79657	22.2507
2.79506	22.5807
2.79355	22.7755
2.79205	22.8645
2.79055	23.1172
2.78904	23.509
2.78754	23.8923
2.78605	24.093
2.78455	24.273
2.78306	24.6967
2.78156	24.9698
2.78007	25.1907
2.77858	25.6214
2.77709	26.0986
2.77561	26.5175
2.77412	27.093
2.77264	27.6976
2.77116	28.1753
2.76968	28.5991
2.7682	29.2533
2.76672	29.6554
2.76524	29.9225
2.76377	30.5524
2.7623	30.8902
2.76083	30.653
2.75936	30.9229
2.75789	31.5361
2.75642	32.6005
2.75496	33.293
2.7535	32.8917
2.75203	33.0832
2.75057	33.58
2.74912	33.9642
2.74766	34.1129
2.7462	34.3026
2.74475	34.613
2.7433	35.3154
2.74185	36.261
2.7404	37.0461
2.73895	37.0574
2.7375	36.5283
2.73606	36.7176
2.73462	37.1725
2.73318	37.0183
2.73174	37.0412
2.7303	37.2776
2.72886	37.7196
2.72742	38.123
2.72599	38.9014
2.72456	39.8519
2.72313	39.8795
2.7217	40.5989
2.72027	41.6601
2.71884	41.046
2.71742	41.0496
2.71599	41.3879
2.71457	41.7197
2.71315	42.3154
2.71173	43.69
2.71032	44.3754
2.7089	44.1743
2.70748	43.9521
2.70607	43.983
2.70466	44.3552
2.70325	44.952
2.70184	45.6607
2.70043	45.9019
2.69903	45.8455
2.69762	46.2828
2.69622	47.1544
2.69482	48.1819
2.69342	48.4476
2.69202	47.807
2.69062	47.6888
2.68923	48.0795
2.68783	48.5869
2.68644	48.994
2.68505	49.202
2.68366	49.4576
2.68227	49.4579
2.68089	49.8303
2.6795	50.8788
2.67812	51.4346
2.67673	52.0266
2.67535	51.7632
2.67397	51.3377
2.6726	51.8802
2.67122	54.1251
2.66984	54.5928
2.66847	53.6259
2.6671	54.8631
2.66572	55.3999
2.66435	54.7321
2.66299	53.631
2.66162	53.7761
2.66025	54.0959
2.65889	53.9561
2.65753	53.683
2.65616	54.2025
2.65481	54.391
2.65345	54.668
2.65209	54.8264
2.65073	54.5182
2.64938	54.4534
2.64803	54.6407
2.64667	54.92
2.64532	55.0547
2.64397	54.7765
2.64263	54.9236
2.64128	54.9899
2.63994	54.975
2.63859	54.8806
2.63725	54.9044
2.63591	55.158
2.63457	55.6554
2.63323	55.6197
2.6319	56.0319
2.63056	57.136
2.62923	56.325
2.62789	56.0722
2.62656	56.6759
2.62523	55.8781
2.6239	55.4189
2.62258	55.5564
2.62125	56.7799
2.61993	57.0748
2.6186	56.4626
2.61728	57.2354
2.61596	56.9348
2.61464	56.1269
2.61332	56.2166
2.61201	56.1131
2.61069	56.4739
2.60938	56.9549
2.60807	57.006
2.60675	57.6807
2.60544	58.5413
2.60414	57.8978
2.60283	57.501
2.60152	57.3506
2.60022	57.0856
2.59891	56.9955
2.59761	57.4629
2.59631	59.2138
2.59501	61.3377
2.59371	59.9479
2.59242	57.9523
2.59112	57.595
2.58983	57.8649
2.58853	58.2754
2.58724	58.5901
2.58595	58.3946
2.58466	58.9999
2.58338	58.9831
2.58209	58.2744
2.5808	58.3198
2.57952	57.884
2.57824	58.0532
2.57695	58.3394
2.57567	58.0123
2.5744	58.4209
2.57312	58.8145
2.57184	58.0493
2.57057	58.2469
2.56929	58.4309
2.56802	57.8637
2.56675	57.5547
2.56548	58.0491
2.56421	58.6609
2.56294	58.8323
2.56168	58.8717
2.56041	58.3892
2.55915	57.7372
2.55789	57.47
2.55662	57.4529
2.55536	57.481
2.5541	57.7003
2.55285	58.0691
2.55159	58.0249
2.55034	57.9209
2.54908	57.8285
2.54783	57.8535
2.54658	57.7726
2.54533	57.7688
2.54408	57.9441
2.54283	58.0646
2.54159	57.7495
2.54034	57.6461
2.5391	57.8249
2.53785	57.8435
2.53661	57.9092
2.53537	57.9251
2.53413	57.926
2.53289	57.9814
2.53166	57.9907
2.53042	57.9273
2.52919	57.9077
2.52795	58.0262
2.52672	58.0552
2.52549	58.0165
2.52426	58.0237
2.52303	58.0419
2.52181	58.166
2.52058	58.1859
2.51936	58.1801
2.51813	58.1193
2.51691	58.0911
2.51569	58.1209
2.51447	58.2639
2.51325	58.4565
2.51203	58.5465
2.51082	58.6433
2.5096	58.8497
2.50839	58.8952
2.50717	59.0854
2.50596	59.2722
2.50475	59.2418
2.50354	59.3442
2.50233	59.4375
2.50113	59.5194
2.49992	59.7028
2.49872	59.7282
2.49751	59.7739
2.49631	59.8998
2.49511	60.0324
2.49391	60.1558
2.49271	60.1999
2.49151	60.2709
2.49031	60.409
2.48912	60.5474
2.48792	60.6085
2.48673	60.6276
2.48554	60.6261
2.48435	60.7087
2.48316	60.8286
2.48197	60.9941
2.48078	61.0637
2.4796	61.0686
2.47841	61.165
2.47723	61.273
2.47604	61.3101
2.47486	61.3569
2.47368	61.4366
2.4725	61.5214
2.47132	61.6155
2.47014	61.6596
2.46897	61.7004
2.46779	61.793
2.46662	61.7983
2.46545	61.805
2.46427	61.9453
2.4631	62.1526
2.46193	62.2663
2.46077	62.2526
2.4596	62.2067
2.45843	62.2477
2.45727	62.2958
2.4561	62.2762
2.45494	62.2388
2.45378	62.2827
2.45262	62.4475
2.45146	62.5364
2.4503	62.5602
2.44914	62.5838
2.44799	62.6972
2.44683	62.7622
2.44568	62.7946
2.44452	62.7893
2.44337	62.8064
2.44222	62.8617
2.44107	62.8186
2.43992	62.8838
2.43877	63.0004
2.43763	62.9221
2.43648	62.9398
2.43534	63.0209
2.43419	63.1121
2.43305	63.1752
2.43191	63.0127
2.43077	62.8406
2.42963	62.8081
2.42849	62.9746
2.42736	63.1368
2.42622	62.995
2.42509	62.8983
2.42395	62.8911
2.42282	62.8982
2.42169	62.8966
2.42056	62.867
2.41943	62.884
2.4183	62.8127
2.41717	62.5884
2.41605	62.4656
2.41492	62.4253
2.4138	62.4283
2.41267	62.4473
2.41155	62.3465
2.41043	62.2186
2.40931	62.1883
2.40819	62.0759
2.40707	61.8154
2.40595	61.6415
2.40484	61.658
2.40372	61.6321
2.40261	61.5367
2.4015	61.3471
2.40039	61.1605
2.39928	61.038
2.39817	60.9262
2.39706	60.8166
2.39595	60.6263
2.39484	60.2538
2.39374	60.065
2.39263	59.9337
2.39153	59.7459
2.39043	59.5566
2.38932	59.2557
2.38822	58.9259
2.38712	58.6818
2.38603	58.4271
2.38493	57.9933
2.38383	57.7352
2.38274	57.4126
2.38164	56.9465
2.38055	56.5403
2.37946	56.1903
2.37836	55.7536
2.37727	55.195
2.37618	54.6549
2.3751	54.0916
2.37401	53.508
2.37292	53.0095
2.37184	52.3908
2.37075	51.568
2.36967	50.8106
2.36859	49.9672
2.3675	48.9741
2.36642	47.8185
2.36534	46.7373
2.36427	45.7602
2.36319	44.5751
2.36211	43.2349
2.36104	41.9726
2.35996	40.71
2.35889	39.3799
2.35781	37.994
2.35674	36.7571
2.35567	35.6781
2.3546	34.6645
2.35353	33.5565
2.35247	32.4726
2.3514	31.5941
2.35033	30.8251
2.34927	30.2093
2.3482	29.6716
2.34714	29.0098
2.34608	28.4404
2.34502	27.9485
2.34396	27.5733
2.3429	27.3337
2.34184	27.2708
2.34078	27.0662
2.33973	26.804
2.33867	26.8385
2.33762	26.968
2.33656	27.069
2.33551	27.3115
2.33446	27.6117
2.33341	27.8513
2.33236	28.2347
2.33131	28.7296
2.33026	29.2642
2.32922	29.7344
2.32817	30.0991
2.32712	30.4786
2.32608	31.1072
2.32504	31.7765
2.324	32.4346
2.32295	33.1882
2.32191	33.8206
2.32087	34.4057
2.31984	34.9376
2.3188	35.445
2.31776	35.8982
2.31673	36.5011
2.31569	37.4108
2.31466	38.2926
2.31362	38.968
2.31259	39.7061
2.31156	40.4155
2.31053	41.0634
2.3095	41.7021
2.30847	42.4383
2.30745	43.1754
2.30642	43.8459
2.3054	44.4842
2.30437	44.9119
2.30335	45.2961
2.30232	45.7754
2.3013	46.3308
2.30028	46.815
2.29926	47.2133
2.29824	47.6235
2.29722	48.1915
2.29621	48.6631
2.29519	48.8267
2.29417	49.1504
2.29316	49.6562
2.29215	49.9833
2.29113	50.2477
2.29012	50.7193
2.28911	51.3445
2.2881	51.8387
2.28709	52.0249
2.28608	52.269
2.28507	52.4776
2.28407	52.6727
2.28306	53.015
2.28206	53.2191
2.28105	53.3811
2.28005	53.5832
2.27905	53.6941
2.27805	53.8501
2.27705	54.0386
2.27605	54.1507
2.27505	54.0909
2.27405	54.0709
2.27305	53.969
2.27206	53.7993
2.27106	53.7759
2.27007	53.7246
2.26907	53.5998
2.26808	53.4086
2.26709	53.1447
2.2661	52.8222
2.26511	52.5314
2.26412	52.285
2.26313	51.8895
2.26214	51.3817
2.26116	50.8564
2.26017	50.3823
2.25919	49.9973
2.2582	49.6805
2.25722	49.2989
2.25624	48.9759
2.25526	48.8827
2.25428	48.8664
2.2533	48.9691
2.25232	49.2694
2.25134	49.6292
2.25036	49.9738
2.24939	50.5212
2.24841	51.0065
2.24744	51.4111
2.24646	51.9277
2.24549	52.6054
2.24452	53.3384
2.24355	53.9797
2.24257	54.6603
2.24161	55.5194
2.24064	56.2252
2.23967	56.8758
2.2387	57.546
2.23774	58.0952
2.23677	58.6261
2.23581	59.2502
2.23484	59.7502
2.23388	60.1662
2.23292	60.4372
2.23196	60.7248
2.231	61.077
2.23004	61.4876
2.22908	61.8354
2.22812	62.0745
2.22716	62.2168
2.22621	62.3639
2.22525	62.5564
2.2243	62.6975
2.22334	62.9091
2.22239	63.2315
2.22144	63.2896
2.22049	63.2401
2.21953	63.421
2.21859	63.629
2.21764	63.709
2.21669	63.8285
2.21574	64.0837
2.21479	64.0755
2.21385	64.0217
2.2129	64.0694
2.21196	64.1369
2.21102	64.1774
2.21007	64.3489
2.20913	64.4989
2.20819	64.5338
2.20725	64.5746
2.20631	64.484
2.20537	64.4117
2.20444	64.4784
2.2035	64.6116
2.20256	64.8702
2.20163	64.9604
2.20069	64.9192
2.19976	64.8927
2.19883	65.061
2.19789	65.2046
2.19696	65.2224
2.19603	65.0716
2.1951	64.9436
2.19417	65.0716
2.19325	65.2243
2.19232	65.4259
2.19139	65.4304
2.19047	65.1847
2.18954	65.0502
2.18862	65.1231
2.18769	65.333
2.18677	65.3689
2.18585	65.4256
2.18493	65.4628
2.18401	65.4323
2.18309	65.4799
2.18217	65.5708
2.18125	65.6851
2.18033	65.7119
2.17942	65.7391
2.1785	65.8252
2.17759	65.8563
2.17667	65.9745
2.17576	65.8803
2.17485	65.7175
2.17393	65.7002
2.17302	65.7848
2.17211	65.7712
2.1712	65.8245
2.17029	65.9416
2.16939	66.0006
2.16848	66.0476
2.16757	65.9882
2.16667	66.0192
2.16576	65.9824
2.16486	66.0255
2.16395	66.2468
2.16305	66.3324
2.16215	66.3254
2.16125	66.1691
2.16035	66.2205
2.15945	66.2521
2.15855	66.2641
2.15765	66.2617
2.15675	66.3293
2.15586	66.2602
2.15496	66.1887
2.15406	66.1618
2.15317	66.2713
2.15228	66.5369
2.15138	66.5697
2.15049	66.58
2.1496	66.5564
2.14871	66.3987
2.14782	66.3394
2.14693	66.2921
2.14604	66.3154
2.14515	66.4484
2.14427	66.4183
2.14338	66.3648
2.14249	66.4771
2.14161	66.4303
2.14072	66.3777
2.13984	66.4048
2.13896	66.3375
2.13808	66.4883
2.13719	66.5385
2.13631	66.3716
2.13543	66.3233
2.13455	66.3967
2.13368	66.5185
2.1328	66.5071
2.13192	66.4212
2.13105	66.2936
2.13017	66.13
2.1293	66.1633
2.12842	66.2563
2.12755	66.2603
2.12668	66.3495
2.1258	66.4687
2.12493	66.6157
2.12406	66.6063
2.12319	66.5548
2.12232	66.6018
2.12145	66.5432
2.12059	66.5212
2.11972	66.449
2.11885	66.5367
2.11799	66.5604
2.11712	66.5087
2.11626	66.4038
2.1154	66.2726
2.11453	66.2954
2.11367	66.3135
2.11281	66.318
2.11195	66.2933
2.11109	66.3881
2.11023	66.3666
2.10937	66.3734
2.10851	66.5214
2.10766	66.7124
2.1068	66.6512
2.10594	66.5032
2.10509	66.3443
2.10423	66.4973
2.10338	66.5452
2.10253	66.2751
2.10168	66.3739
2.10082	66.5629
2.09997	66.5562
2.09912	66.4543
2.09827	66.5451
2.09742	66.704
2.09658	66.6902
2.09573	66.689
2.09488	66.6843
2.09404	66.4271
2.09319	66.3442
2.09235	66.3628
2.0915	66.533
2.09066	66.6468
2.08982	66.5521
2.08897	66.6551
2.08813	66.7775
2.08729	66.6187
2.08645	66.443
2.08561	66.5299
2.08477	66.5332
2.08394	66.4014
2.0831	66.422
2.08226	66.3451
2.08143	66.3304
2.08059	66.4617
2.07976	66.5063
2.07892	66.5469
2.07809	66.6702
2.07726	66.6652
2.07643	66.4976
2.07559	66.5847
2.07476	66.5962
2.07393	66.5098
2.0731	66.3824
2.07228	66.3438
2.07145	66.4099
2.07062	66.3397
2.06979	66.2889
2.06897	66.3599
2.06814	66.4259
2.06732	66.5194
2.06649	66.4675
2.06567	66.2216
2.06485	66.0778
2.06403	66.1871
2.0632	66.3019
2.06238	66.2888
2.06156	66.4032
2.06074	66.6339
2.05993	66.3392
2.05911	66.1466
2.05829	66.0173
2.05747	66.0879
2.05666	66.2307
2.05584	66.2983
2.05503	66.3893
2.05421	66.4534
2.0534	66.4282
2.05259	66.1576
2.05177	66.0249
2.05096	66.2051
2.05015	66.3872
2.04934	66.0841
2.04853	66.0125
2.04772	66.1447
2.04691	66.2874
2.04611	66.2611
2.0453	66.2075
2.04449	66.113
2.04369	65.9716
2.04288	66.1373
2.04208	66.2423
2.04127	66.0453
2.04047	66.0727
2.03967	66.2814
2.03886	66.3339
2.03806	66.3027
2.03726	66.1592
2.03646	65.9674
2.03566	65.9525
2.03486	66.0251
2.03407	66.0405
2.03327	66.0118
2.03247	65.9114
2.03167	65.9502
2.03088	66.103
2.03008	66.1357
2.02929	66.0321
2.0285	65.7954
2.0277	65.7698
2.02691	65.8402
2.02612	65.9146
2.02533	65.8595
2.02453	65.984
2.02374	66.0826
2.02295	65.827
2.02217	65.7996
2.02138	65.7644
2.02059	65.7785
2.0198	65.9302
2.01902	65.9789
2.01823	65.8703
2.01744	65.7514
2.01666	65.8693
2.01588	66.0012
2.01509	65.8365
2.01431	65.641
2.01353	65.7323
2.01275	65.8929
2.01196	65.9406
2.01118	65.8514
2.0104	65.7443
2.00963	65.7303
2.00885	65.7928
2.00807	65.8736
2.00729	65.677
2.00651	65.6774
2.00574	65.8528
2.00496	65.802
2.00419	65.7062
2.00341	65.8026
2.00264	65.8171
2.00187	65.644
2.00109	65.6134
2.00032	65.6748
