Name: Pyrolusite MnO_2
Type: Mineral
Class: Oxides
Subclass: 
Particle Size: 125-500um
Sample No.: O-6A
Owner: JPL
Wavelength range: IR
Origin: Mexico, Chihuahua
Collected by Grieger's Inc.
Description: 





Measurement: Hemispherical reflectance
First Column: X
Second Column: Y
X Units:  Wavelength (micrometers)
Y Units:  Reflectance (percent)
First X Value: 15.3853
Last X Value: 2.00032
Number of X Values: 2256
Additional information: o06aa.txt
 
15.3853	32.8267
15.3397	32.7483
15.2945	32.5676
15.2495	32.3038
15.2048	32.1289
15.1603	31.9423
15.1161	31.6572
15.0722	31.2741
15.0285	31.0492
14.9851	30.7813
14.9419	30.2883
14.8989	29.8959
14.8563	29.6097
14.8138	29.4707
14.7716	29.3837
14.7296	28.9508
14.6879	28.502
14.6464	28.2396
14.6052	27.8793
14.5641	27.1145
14.5233	26.4377
14.4828	25.9063
14.4424	25.3615
14.4023	24.7721
14.3624	23.9154
14.3227	22.8155
14.2833	21.6827
14.244	20.4975
14.205	19.2184
14.1662	17.9216
14.1276	16.5267
14.0892	15.084
14.051	13.9082
14.0131	13.1558
13.9753	12.3766
13.9377	11.5419
13.9004	10.9368
13.8632	10.4786
13.8262	10.2196
13.7895	9.90555
13.7529	9.4794
13.7165	9.23764
13.6803	8.97224
13.6443	8.75302
13.6085	8.71607
13.5729	8.38285
13.5374	7.97484
13.5022	7.63233
13.4671	7.23464
13.4322	6.81253
13.3975	6.39817
13.363	5.73979
13.3286	5.06033
13.2944	4.55602
13.2604	3.92657
13.2266	3.37237
13.193	2.96854
13.1595	2.71573
13.1262	2.61498
13.093	2.54462
13.06	2.50325
13.0272	2.49486
12.9946	2.524
12.9621	2.63262
12.9298	2.68047
12.8976	2.68601
12.8656	2.78833
12.8337	2.83112
12.8021	2.88929
12.7705	2.87902
12.7391	2.80713
12.7079	3.01319
12.6769	3.428
12.6459	3.62739
12.6152	3.57781
12.5845	3.46522
12.5541	3.59218
12.5238	3.88485
12.4936	3.83374
12.4635	3.78157
12.4337	3.95634
12.4039	4.04278
12.3743	4.27183
12.3448	4.61746
12.3155	4.72906
12.2863	4.74056
12.2573	4.75911
12.2284	4.87837
12.1996	4.99107
12.171	5.00989
12.1425	5.0861
12.1141	5.1499
12.0859	5.17342
12.0578	5.22343
12.0298	5.28432
12.0019	5.42756
11.9742	5.47649
11.9466	5.49072
11.9192	5.65441
11.8918	5.73119
11.8646	5.8026
11.8375	5.7982
11.8106	5.8955
11.7837	5.89334
11.757	5.87929
11.7304	6.03592
11.7039	6.09055
11.6776	6.14103
11.6513	6.20848
11.6252	6.22147
11.5992	6.29306
11.5733	6.36358
11.5475	6.62042
11.5219	6.75563
11.4963	6.70367
11.4709	6.66447
11.4455	6.76496
11.4203	6.81916
11.3952	6.79278
11.3702	6.89899
11.3454	7.01826
11.3206	7.00649
11.2959	6.95321
11.2714	6.89444
11.2469	6.99745
11.2226	7.16513
11.1983	7.31977
11.1742	7.27903
11.1502	7.25048
11.1263	7.28936
11.1024	7.38693
11.0787	7.45239
11.0551	7.49928
11.0316	7.60056
11.0081	7.65495
10.9848	7.72366
10.9616	7.76012
10.9385	7.80668
10.9154	7.79327
10.8925	7.75475
10.8697	7.88055
10.8469	8.03004
10.8243	8.09246
10.8017	8.08591
10.7793	8.17261
10.7569	8.11211
10.7346	8.09896
10.7125	8.24769
10.6904	8.19786
10.6684	8.22212
10.6465	8.38673
10.6247	8.38732
10.6029	8.33093
10.5813	8.38371
10.5597	8.27559
10.5383	8.19725
10.5169	8.44193
10.4956	8.68715
10.4744	8.64102
10.4533	8.5241
10.4323	8.62173
10.4113	8.69054
10.3904	8.68982
10.3697	8.733
10.349	8.7932
10.3284	8.75678
10.3078	8.69
10.2874	8.71404
10.267	8.87419
10.2467	9.00781
10.2265	8.99132
10.2064	8.81331
10.1863	8.91598
10.1663	9.0097
10.1464	9.04186
10.1266	9.12958
10.1069	9.1074
10.0872	8.9885
10.0676	9.02299
10.0481	9.17683
10.0287	9.12057
10.0093	9.13964
9.99005	9.18901
9.97084	9.32963
9.95169	9.38673
9.93263	9.29538
9.91364	9.27862
9.89472	9.44431
9.87587	9.63982
9.8571	9.59989
9.83839	9.55299
9.81976	9.51456
9.80119	9.55746
9.78271	9.66161
9.76428	9.69341
9.74592	9.6485
9.72764	9.60568
9.70943	9.61382
9.69128	9.78312
9.6732	9.93252
9.65518	9.97653
9.63724	9.96744
9.61935	9.83521
9.60155	9.77965
9.5838	9.80869
9.56611	9.79563
9.5485	9.92243
9.53094	10.0544
9.51345	9.99179
9.49604	9.92258
9.47867	9.98124
9.46137	9.94946
9.44414	10.0109
9.42697	10.063
9.40986	10.0145
9.39281	9.96416
9.37583	10.0332
9.35891	10.1458
9.34204	10.1878
9.32524	10.1174
9.3085	10.0344
9.29182	9.89256
9.27519	9.85818
9.25863	9.87156
9.24213	9.82887
9.22568	9.78104
9.2093	9.77191
9.19297	9.81081
9.17669	9.81919
9.16048	9.90803
9.14433	9.97469
9.12823	10.0235
9.11218	9.95823
9.0962	9.80364
9.08027	9.65132
9.06439	9.62654
9.04858	9.61944
9.03281	9.69936
9.0171	9.80221
9.00145	9.79297
8.98585	9.71286
8.9703	9.70089
8.9548	9.70061
8.93937	9.70072
8.92398	9.87284
8.90865	9.88351
8.89337	9.76449
8.87814	9.80409
8.86296	9.97364
8.84784	10.0587
8.83277	10.102
8.81774	10.1202
8.80277	10.0896
8.78786	10.1905
8.77298	10.3073
8.75816	10.3154
8.7434	10.2441
8.72868	10.1706
8.714	10.1561
8.69938	10.1903
8.68481	10.2258
8.67029	10.3101
8.65581	10.4316
8.64139	10.358
8.62701	10.305
8.61268	10.3681
8.5984	10.3957
8.58416	10.4392
8.56997	10.5509
8.55583	10.5901
8.54174	10.5026
8.52769	10.6208
8.51368	10.7625
8.49973	10.6877
8.48582	10.7107
8.47195	10.7817
8.45813	10.8689
8.44436	10.8951
8.43062	10.929
8.41693	10.8799
8.4033	10.8622
8.3897	10.9584
8.37614	11.0379
8.36264	11.133
8.34917	11.1221
8.33574	11.0379
8.32236	11.1041
8.30903	11.1593
8.29573	11.0644
8.28248	11.0841
8.26927	11.1975
8.2561	11.3293
8.24298	11.4928
8.2299	11.5149
8.21685	11.4671
8.20385	11.3867
8.19089	11.3821
8.17797	11.3684
8.16509	11.4354
8.15225	11.4879
8.13946	11.5448
8.1267	11.5422
8.11398	11.5747
8.10131	11.6778
8.08867	11.6174
8.07606	11.6331
8.0635	11.6737
8.05099	11.6628
8.0385	11.7548
8.02606	11.6958
8.01366	11.6165
8.00129	11.7028
7.98896	11.7508
7.97667	11.7171
7.96442	11.7608
7.9522	11.8414
7.94002	11.8018
7.92788	11.757
7.91578	11.7409
7.90371	11.7898
7.89168	11.8881
7.87969	11.91
7.86773	11.8774
7.85581	11.8543
7.84392	11.8595
7.83207	11.8386
7.82026	11.7441
7.80849	11.7483
7.79674	11.7712
7.78503	11.8473
7.77337	11.9279
7.76173	11.8691
7.75012	11.7705
7.73856	11.8145
7.72703	11.8423
7.71553	11.886
7.70406	11.926
7.69263	11.9014
7.68123	11.8796
7.66987	11.8627
7.65855	11.8963
7.64725	11.9332
7.63598	12.0089
7.62475	12.0028
7.61356	11.9838
7.60239	12.0235
7.59126	12.0765
7.58017	12.1398
7.5691	12.1737
7.55806	12.1235
7.54707	12.1114
7.5361	12.1352
7.52516	12.1931
7.51425	12.2346
7.50338	12.2811
7.49253	12.3719
7.48172	12.4728
7.47094	12.4269
7.46019	12.4888
7.44947	12.5693
7.43879	12.4819
7.42813	12.4647
7.4175	12.5194
7.4069	12.5758
7.39634	12.6
7.3858	12.6746
7.37529	12.7205
7.36482	12.7186
7.35437	12.8452
7.34396	12.8899
7.33357	12.7686
7.32321	12.7147
7.31288	12.8285
7.30258	12.9094
7.29231	12.8766
7.28207	12.9408
7.27185	13.0284
7.26167	13.0084
7.25152	12.9781
7.24139	12.9721
7.23129	12.979
7.22122	12.9768
7.21117	13.1309
7.20116	13.1328
7.19117	13.0361
7.18121	13.071
7.17128	13.1714
7.16137	13.2075
7.1515	13.2948
7.14164	13.2921
7.13182	13.2146
7.12203	13.2636
7.11225	13.2326
7.10251	13.1631
7.0928	13.2431
7.08311	13.3196
7.07344	13.2865
7.06381	13.2946
7.0542	13.436
7.04461	13.5324
7.03506	13.3778
7.02552	13.3291
7.01601	13.3968
7.00653	13.4676
6.99708	13.4062
6.98765	13.2919
6.97824	13.2438
6.96886	13.382
6.95951	13.5393
6.95018	13.4232
6.94087	13.3876
6.9316	13.4092
6.92234	13.4864
6.91311	13.4843
6.90391	13.3556
6.89473	13.3106
6.88557	13.3825
6.87644	13.4414
6.86733	13.6781
6.85824	13.7346
6.84918	13.5484
6.84015	13.493
6.83114	13.6094
6.82215	13.6421
6.81319	13.4655
6.80424	13.5138
6.79532	13.7757
6.78643	13.8069
6.77756	13.6708
6.76871	13.6513
6.75989	13.6126
6.75109	13.5678
6.74231	13.4896
6.73355	13.478
6.72482	13.5898
6.71611	13.6662
6.70742	13.6792
6.69875	13.6221
6.69011	13.7971
6.68149	13.9324
6.67289	13.8279
6.66431	13.6899
6.65576	13.5945
6.64722	13.7771
6.63871	14.1564
6.63022	14.1604
6.62175	13.9431
6.61331	13.863
6.60488	13.7963
6.59648	13.7798
6.5881	13.8006
6.57974	14.025
6.5714	14.2068
6.56308	13.9868
6.55478	13.9009
6.54651	13.8716
6.53825	13.8894
6.53001	13.9688
6.5218	14.0838
6.51361	14.012
6.50544	13.9871
6.49729	14.2822
6.48915	14.3593
6.48104	14.2318
6.47295	14.1119
6.46488	13.9614
6.45683	13.9457
6.4488	13.9607
6.44079	13.9425
6.4328	13.9967
6.42482	14.1559
6.41687	14.5356
6.40894	14.4002
6.40103	14.0005
6.39314	13.9534
6.38526	13.9985
6.37741	14.0901
6.36957	14.1185
6.36176	13.9999
6.35396	14.0974
6.34618	14.2301
6.33843	14.0334
6.33069	13.8603
6.32297	13.8728
6.31527	13.8285
6.30758	13.903
6.29992	13.9685
6.29227	13.8669
6.28465	13.7865
6.27704	13.8547
6.26945	13.9258
6.26188	13.9076
6.25432	13.8733
6.24679	13.8772
6.23927	13.862
6.23177	13.8664
6.22429	13.9296
6.21683	13.9272
6.20938	13.8882
6.20195	13.8866
6.19454	13.9059
6.18715	14.0868
6.17978	14.0114
6.17242	13.9991
6.16508	14.1266
6.15776	14.1879
6.15045	14.1243
6.14317	14.0823
6.1359	14.0288
6.12864	14.0284
6.12141	14.19
6.11419	14.448
6.10699	14.3545
6.0998	14.1536
6.09263	14.1468
6.08549	14.1418
6.07835	14.3093
6.07123	14.4566
6.06413	14.3647
6.05705	14.5895
6.04998	15.0036
6.04293	14.5989
6.0359	14.211
6.02888	14.1949
6.02187	14.2518
6.01489	14.4088
6.00792	14.3524
6.00096	14.246
5.99403	14.3285
5.98711	14.4528
5.9802	14.4412
5.97331	14.5077
5.96644	14.5559
5.95958	14.4059
5.95274	14.3492
5.94591	14.3613
5.9391	14.7099
5.9323	14.7608
5.92552	14.5397
5.91876	14.4721
5.91201	14.411
5.90528	14.3934
5.89856	14.6192
5.89186	14.6684
5.88517	14.7419
5.8785	14.8239
5.87184	14.5659
5.8652	14.4267
5.85857	14.3554
5.85196	14.449
5.84536	14.5138
5.83878	14.5356
5.83221	14.694
5.82566	14.8189
5.81912	14.754
5.81259	14.5738
5.80608	14.5338
5.79959	14.5497
5.79311	14.5203
5.78665	14.5116
5.78019	14.5542
5.77376	14.6553
5.76734	14.8689
5.76093	14.7384
5.75453	14.6363
5.74815	14.6997
5.74179	14.6162
5.73543	14.59
5.7291	14.6028
5.72277	14.5958
5.71646	14.6716
5.71017	14.7692
5.70389	14.6802
5.69762	14.6302
5.69136	14.7196
5.68513	14.6735
5.6789	14.6647
5.67268	14.6912
5.66648	14.5787
5.6603	14.5372
5.65413	14.5938
5.64797	14.709
5.64182	14.7814
5.63569	14.6493
5.62957	14.6223
5.62347	14.625
5.61737	14.6066
5.61129	14.5953
5.60522	14.5871
5.59917	14.6125
5.59313	14.5972
5.5871	14.6855
5.58109	14.8442
5.57509	14.7262
5.5691	14.5541
5.56312	14.5692
5.55716	14.6568
5.55121	14.7046
5.54528	14.6692
5.53935	14.6033
5.53344	14.5886
5.52754	14.6982
5.52166	14.7569
5.51578	14.7077
5.50992	14.6046
5.50407	14.5751
5.49823	14.5849
5.49241	14.686
5.4866	14.731
5.4808	14.7831
5.47501	14.753
5.46923	14.7342
5.46347	14.768
5.45772	14.7551
5.45198	14.777
5.44625	14.7836
5.44054	14.7445
5.43484	14.6592
5.42914	14.7144
5.42347	14.8253
5.4178	14.7582
5.41214	14.7377
5.4065	14.7817
5.40087	14.811
5.39525	14.8277
5.38964	14.7209
5.38404	14.6498
5.37846	14.6666
5.37288	14.6989
5.36732	14.7682
5.36177	14.8089
5.35623	14.8479
5.35071	14.9255
5.34519	14.8003
5.33968	14.7123
5.33419	14.7665
5.32871	14.8527
5.32324	14.9018
5.31778	14.8447
5.31233	14.7942
5.30689	14.7279
5.30147	14.7578
5.29605	14.7956
5.29065	14.7661
5.28525	14.7912
5.27987	14.838
5.2745	14.848
5.26914	14.8519
5.26379	14.8659
5.25845	14.8966
5.25312	14.8837
5.24781	14.8766
5.2425	14.8684
5.23721	14.8147
5.23192	14.7724
5.22665	14.7538
5.22138	14.8102
5.21613	14.8679
5.21089	14.8203
5.20566	14.8186
5.20044	14.8906
5.19522	14.9176
5.19002	14.8568
5.18483	14.8345
5.17965	14.8731
5.17448	14.9072
5.16933	14.9305
5.16418	14.9652
5.15904	14.9492
5.15391	14.9236
5.14879	14.953
5.14368	14.963
5.13859	14.9845
5.1335	14.9414
5.12842	14.8761
5.12335	14.873
5.1183	14.8908
5.11325	14.9263
5.10821	14.9676
5.10318	14.9908
5.09817	15.0296
5.09316	15.0726
5.08816	15.0789
5.08317	15.0655
5.07819	14.9442
5.07322	14.9353
5.06826	14.9732
5.06331	14.9928
5.05837	15.0076
5.05344	15.0398
5.04852	15.0882
5.04361	15.0194
5.03871	14.9318
5.03382	14.9439
5.02894	14.9815
5.02406	15.0231
5.0192	14.972
5.01435	14.8735
5.0095	14.868
5.00467	15.0413
4.99984	15.1412
4.99502	15.0773
4.99021	15.0719
4.98542	15.1106
4.98063	15.0397
4.97585	14.9793
4.97108	15.0166
4.96632	15.0684
4.96156	15.0997
4.95682	15.0574
4.95209	15.0262
4.94736	15.0143
4.94264	15.0134
4.93794	15.0224
4.93324	15.0125
4.92855	15.0216
4.92387	15.0936
4.9192	15.1233
4.91453	15.0429
4.90988	15.0044
4.90524	15.0631
4.9006	15.1265
4.89597	15.1297
4.89135	15.1259
4.88674	15.0848
4.88214	15.0679
4.87755	15.1264
4.87296	15.1249
4.86839	15.0317
4.86382	15.0078
4.85926	15.0396
4.85471	15.0862
4.85017	15.1397
4.84564	15.1385
4.84111	15.093
4.8366	15.0998
4.83209	15.1527
4.82759	15.121
4.8231	15.1027
4.81862	15.1827
4.81415	15.2128
4.80968	15.1995
4.80522	15.1675
4.80077	15.1387
4.79633	15.1432
4.7919	15.0962
4.78747	15.0294
4.78306	15.1295
4.77865	15.2543
4.77425	15.2422
4.76986	15.2631
4.76547	15.3145
4.7611	15.2483
4.75673	15.188
4.75237	15.1858
4.74802	15.1761
4.74367	15.18
4.73934	15.2269
4.73501	15.2506
4.73069	15.2233
4.72638	15.1841
4.72207	15.1444
4.71777	15.1245
4.71348	15.1258
4.7092	15.1941
4.70493	15.2384
4.70066	15.2205
4.69641	15.2256
4.69216	15.2209
4.68791	15.2209
4.68368	15.2209
4.67945	15.243
4.67523	15.277
4.67102	15.2471
4.66682	15.2661
4.66262	15.2688
4.65843	15.2857
4.65425	15.2822
4.65007	15.2662
4.64591	15.2676
4.64175	15.2394
4.6376	15.2588
4.63345	15.2946
4.62932	15.2849
4.62519	15.3487
4.62106	15.3969
4.61695	15.3126
4.61284	15.3192
4.60874	15.3727
4.60465	15.3079
4.60056	15.2515
4.59648	15.2637
4.59241	15.312
4.58835	15.2948
4.58429	15.3022
4.58024	15.3212
4.5762	15.3454
4.57216	15.3235
4.56814	15.2596
4.56411	15.2856
4.5601	15.3041
4.55609	15.3023
4.55209	15.3426
4.5481	15.3394
4.54411	15.346
4.54013	15.3608
4.53616	15.361
4.5322	15.408
4.52824	15.4295
4.52429	15.3333
4.52034	15.304
4.51641	15.288
4.51247	15.3144
4.50855	15.4164
4.50463	15.4316
4.50072	15.4231
4.49682	15.4027
4.49292	15.4297
4.48903	15.4524
4.48515	15.3206
4.48127	15.3118
4.4774	15.3861
4.47354	15.3961
4.46968	15.39
4.46584	15.4179
4.46199	15.4346
4.45815	15.4334
4.45432	15.4474
4.4505	15.4029
4.44668	15.3702
4.44287	15.4084
4.43907	15.4558
4.43527	15.4374
4.43148	15.3826
4.4277	15.3659
4.42392	15.3968
4.42015	15.4218
4.41638	15.4246
4.41262	15.4195
4.40887	15.5055
4.40513	15.5251
4.40139	15.4401
4.39765	15.3791
4.39393	15.425
4.39021	15.4591
4.38649	15.4934
4.38278	15.534
4.37908	15.4799
4.37539	15.4489
4.3717	15.4758
4.36801	15.5323
4.36434	15.561
4.36067	15.5119
4.357	15.498
4.35335	15.4744
4.34969	15.4342
4.34605	15.3909
4.34241	15.3999
4.33877	15.4774
4.33514	15.5295
4.33152	15.5113
4.32791	15.4493
4.3243	15.492
4.32069	15.5582
4.3171	15.5029
4.31351	15.4501
4.30992	15.4863
4.30634	15.4984
4.30277	15.5033
4.2992	15.4989
4.29564	15.4156
4.29208	15.43
4.28853	15.4667
4.28499	15.5009
4.28145	15.4938
4.27792	15.4615
4.27439	15.4774
4.27087	15.4803
4.26735	15.4375
4.26384	15.403
4.26034	15.4332
4.25684	15.423
4.25335	15.4712
4.24986	15.5353
4.24638	15.5522
4.24291	15.4983
4.23944	15.4281
4.23598	15.4719
4.23252	15.4825
4.22906	15.4734
4.22562	15.4603
4.22218	15.4329
4.21874	15.494
4.21531	15.5993
4.21189	15.5631
4.20847	15.528
4.20506	15.525
4.20165	15.5596
4.19825	15.5983
4.19485	15.6367
4.19146	15.675
4.18807	15.5479
4.18469	15.4481
4.18132	15.5195
4.17795	15.5883
4.17458	15.6315
4.17123	15.6265
4.16787	15.6739
4.16453	15.666
4.16118	15.5968
4.15785	15.5942
4.15451	15.6018
4.15119	15.5985
4.14787	15.6112
4.14455	15.5385
4.14124	15.5162
4.13794	15.5954
4.13464	15.6612
4.13134	15.6533
4.12805	15.6932
4.12477	15.7061
4.12149	15.6859
4.11822	15.6751
4.11495	15.5787
4.11168	15.5026
4.10843	15.5983
4.10517	15.588
4.10192	15.5696
4.09868	15.6247
4.09545	15.6425
4.09221	15.6646
4.08899	15.6664
4.08576	15.6685
4.08255	15.6801
4.07933	15.6763
4.07613	15.6598
4.07292	15.6875
4.06973	15.6555
4.06654	15.5932
4.06335	15.6126
4.06017	15.6001
4.05699	15.6704
4.05382	15.7807
4.05065	15.806
4.04749	15.7313
4.04433	15.6553
4.04118	15.6466
4.03803	15.6747
4.03489	15.673
4.03175	15.6896
4.02862	15.6985
4.02549	15.699
4.02237	15.7139
4.01925	15.7411
4.01614	15.8058
4.01303	15.832
4.00993	15.7856
4.00683	15.7923
4.00373	15.8444
4.00064	15.8128
3.99756	15.8413
3.99448	15.8464
3.9914	15.7198
3.98833	15.6996
3.98527	15.7649
3.98221	15.8068
3.97915	15.765
3.9761	15.7276
3.97305	15.7382
3.97001	15.7787
3.96697	15.7939
3.96394	15.805
3.96091	15.7921
3.95789	15.737
3.95487	15.7302
3.95186	15.7838
3.94885	15.8553
3.94584	15.8891
3.94284	15.8186
3.93984	15.683
3.93685	15.6571
3.93386	15.7575
3.93088	15.7875
3.9279	15.7353
3.92493	15.7913
3.92196	15.867
3.919	15.8315
3.91604	15.8035
3.91308	15.8115
3.91013	15.7519
3.90718	15.7503
3.90424	15.8176
3.9013	15.8251
3.89837	15.8768
3.89544	15.8844
3.89252	15.8297
3.8896	15.8189
3.88668	15.8202
3.88377	15.7938
3.88086	15.8825
3.87796	15.8452
3.87506	15.7644
3.87217	15.715
3.86928	15.7417
3.86639	15.7686
3.86351	15.8331
3.86064	15.8815
3.85776	15.8793
3.8549	15.8877
3.85203	15.8664
3.84917	15.8446
3.84631	15.8641
3.84346	15.9493
3.84062	15.9757
3.83777	15.9769
3.83494	15.9107
3.8321	15.8125
3.82927	15.7755
3.82644	15.8193
3.82362	15.8222
3.82081	15.8045
3.81799	15.8267
3.81518	15.8251
3.81238	15.8546
3.80958	15.9298
3.80678	15.871
3.80399	15.8859
3.8012	15.8431
3.79841	15.8468
3.79563	15.869
3.79286	15.7985
3.79008	15.8701
3.78731	15.9017
3.78455	15.8783
3.78179	15.8749
3.77903	15.7685
3.77628	15.7248
3.77353	15.7879
3.77079	15.8241
3.76805	15.8386
3.76531	15.907
3.76258	15.9842
3.75985	15.9401
3.75713	15.8457
3.7544	15.8678
3.75169	15.9254
3.74898	15.8783
3.74627	15.8275
3.74356	15.8557
3.74086	15.8821
3.73816	15.8687
3.73547	15.8327
3.73278	15.8464
3.7301	15.9057
3.72741	15.9128
3.72474	15.8767
3.72206	15.9007
3.71939	15.9537
3.71673	15.9404
3.71406	15.8341
3.71141	15.842
3.70875	15.8363
3.7061	15.8085
3.70345	15.87
3.70081	15.942
3.69817	15.8839
3.69553	15.8673
3.6929	15.9035
3.69027	15.9471
3.68765	15.8686
3.68503	15.7656
3.68241	15.8701
3.6798	16.0123
3.67719	15.9108
3.67458	15.8218
3.67198	15.8411
3.66938	15.8921
3.66678	16.0122
3.66419	15.9554
3.66161	15.8599
3.65902	15.8126
3.65644	15.9144
3.65387	15.9833
3.65129	15.8827
3.64872	15.858
3.64616	15.9058
3.64359	15.925
3.64103	15.9038
3.63848	15.8881
3.63593	15.8099
3.63338	15.8171
3.63084	15.9033
3.6283	15.8873
3.62576	15.8862
3.62322	15.929
3.62069	15.9642
3.61817	15.9602
3.61564	15.9226
3.61312	15.9175
3.61061	15.8692
3.6081	15.8387
3.60559	15.9683
3.60308	15.9613
3.60058	15.8845
3.59808	15.9142
3.59558	15.9188
3.59309	15.9789
3.59061	15.9072
3.58812	15.8752
3.58564	15.8543
3.58316	15.8238
3.58069	15.8093
3.57822	15.8316
3.57575	15.8413
3.57328	15.8742
3.57082	15.8967
3.56836	15.9464
3.56591	15.9453
3.56346	15.9775
3.56101	16.015
3.55857	15.9166
3.55613	15.8756
3.55369	15.9158
3.55126	15.9043
3.54883	15.8291
3.5464	15.8333
3.54397	15.9041
3.54155	15.9112
3.53914	15.9608
3.53672	15.8994
3.53431	15.8574
3.5319	15.9382
3.5295	16.0118
3.5271	15.9599
3.5247	15.9239
3.52231	15.9397
3.51991	16.0119
3.51753	16.0028
3.51514	15.8489
3.51276	15.85
3.51038	15.919
3.50801	15.967
3.50563	15.9732
3.50327	15.9928
3.5009	16.0975
3.49854	16.0935
3.49618	16.0801
3.49382	15.9454
3.49147	15.8839
3.48912	16.0587
3.48677	16.0625
3.48443	16.0314
3.48209	16.0531
3.47975	15.9456
3.47742	15.8945
3.47509	15.9555
3.47276	15.9095
3.47044	15.8356
3.46812	15.8495
3.4658	15.8822
3.46348	15.9144
3.46117	15.8729
3.45886	15.868
3.45656	15.8954
3.45425	15.9587
3.45195	15.9778
3.44966	16.0637
3.44736	16.0988
3.44507	16.0362
3.44279	15.9679
3.4405	15.986
3.43822	15.9936
3.43594	15.9081
3.43367	16.0029
3.43139	16.0914
3.42912	16.1227
3.42686	16.0812
3.42459	15.954
3.42233	15.8782
3.42007	15.999
3.41782	16.0334
3.41557	15.9545
3.41332	15.9938
3.41108	16.1217
3.40883	16.0775
3.40659	16.0469
3.40435	16.0098
3.40212	15.9548
3.39989	15.957
3.39766	15.9247
3.39544	15.9685
3.39322	15.9803
3.391	15.9099
3.38878	15.8654
3.38657	15.8712
3.38436	15.8971
3.38215	15.9106
3.37994	15.9431
3.37774	15.934
3.37554	15.9334
3.37335	15.9307
3.37115	15.9323
3.36896	15.8883
3.36678	15.864
3.36459	15.904
3.36241	15.9209
3.36023	15.9186
3.35805	15.9625
3.35588	15.9737
3.35371	15.9239
3.35154	15.8662
3.34938	15.8859
3.34721	15.9159
3.34505	15.858
3.3429	15.9307
3.34074	15.9688
3.33859	15.9619
3.33644	15.9774
3.3343	15.9088
3.33215	15.8188
3.33001	15.7697
3.32788	15.7869
3.32574	15.8782
3.32361	15.9026
3.32148	15.8862
3.31936	15.8386
3.31723	15.7977
3.31511	15.7867
3.31299	15.853
3.31088	15.8989
3.30876	15.8454
3.30665	15.839
3.30455	15.8066
3.30244	15.7863
3.30034	15.7693
3.29824	15.7898
3.29614	15.8551
3.29405	15.7896
3.29196	15.7047
3.28987	15.7734
3.28778	15.7435
3.2857	15.6902
3.28362	15.7795
3.28154	15.9326
3.27946	15.9333
3.27739	15.8917
3.27532	15.9107
3.27325	15.7991
3.27119	15.7317
3.26913	15.75
3.26707	15.713
3.26501	15.7475
3.26295	15.8525
3.2609	15.857
3.25885	15.7819
3.2568	15.7496
3.25476	15.8042
3.25272	15.8846
3.25068	15.8418
3.24864	15.7771
3.24661	15.7719
3.24458	15.7728
3.24255	15.7972
3.24052	15.7854
3.2385	15.7678
3.23648	15.7783
3.23446	15.795
3.23244	15.7585
3.23043	15.7783
3.22841	15.7817
3.2264	15.8437
3.2244	15.8961
3.22239	15.787
3.22039	15.7174
3.21839	15.8157
3.2164	15.8311
3.2144	15.8123
3.21241	15.8528
3.21042	15.911
3.20844	15.9621
3.20645	15.9552
3.20447	15.8533
3.20249	15.8429
3.20051	15.8068
3.19854	15.8079
3.19657	15.7574
3.1946	15.7366
3.19263	15.8319
3.19067	15.8042
3.1887	15.8416
3.18674	15.8737
3.18479	15.891
3.18283	15.894
3.18088	15.7976
3.17893	15.7694
3.17698	15.8341
3.17504	15.916
3.17309	15.9196
3.17115	15.9329
3.16921	15.8771
3.16728	15.7923
3.16534	15.7538
3.16341	15.7252
3.16148	15.6985
3.15956	15.7735
3.15763	15.8494
3.15571	15.8507
3.15379	15.8536
3.15187	15.825
3.14996	15.8861
3.14805	15.8912
3.14614	15.9171
3.14423	15.8889
3.14232	15.7812
3.14042	15.8167
3.13852	15.8277
3.13662	15.7733
3.13472	15.8023
3.13283	15.9082
3.13094	15.9253
3.12905	15.8785
3.12716	15.9446
3.12528	15.9194
3.12339	15.8569
3.12151	15.7318
3.11964	15.712
3.11776	15.7405
3.11589	15.7802
3.11401	15.8992
3.11214	15.9151
3.11028	15.8456
3.10841	15.8184
3.10655	15.8333
3.10469	15.9324
3.10283	15.8656
3.10098	15.824
3.09912	15.8347
3.09727	15.7992
3.09542	15.8079
3.09358	15.8332
3.09173	15.8886
3.08989	15.892
3.08805	15.8554
3.08621	15.7502
3.08437	15.6697
3.08254	15.7268
3.08071	15.7811
3.07888	15.8715
3.07705	15.9176
3.07523	15.9216
3.0734	15.8592
3.07158	15.7354
3.06977	15.5736
3.06795	15.6978
3.06613	15.9386
3.06432	15.8422
3.06251	15.694
3.0607	15.7781
3.0589	15.8974
3.0571	15.9084
3.05529	15.8074
3.05349	15.8159
3.0517	15.8694
3.0499	15.8634
3.04811	15.8523
3.04632	15.8501
3.04453	15.7807
3.04274	15.7354
3.04096	15.7381
3.03918	15.7978
3.0374	15.8299
3.03562	15.9552
3.03384	15.9198
3.03207	15.7602
3.03029	15.7198
3.02852	15.794
3.02676	15.8606
3.02499	15.9038
3.02323	15.9042
3.02146	15.925
3.0197	15.8945
3.01795	15.8644
3.01619	15.867
3.01444	15.7819
3.01269	15.7932
3.01094	15.8807
3.00919	15.8978
3.00744	15.958
3.0057	15.97
3.00396	15.8558
3.00222	15.8102
3.00048	15.7538
2.99875	15.726
2.99701	15.6945
2.99528	15.6142
2.99355	15.6064
2.99183	15.6926
2.9901	15.865
2.98838	15.9941
2.98666	15.9822
2.98494	15.962
2.98322	15.8614
2.9815	15.7681
2.97979	15.8295
2.97808	15.8195
2.97637	15.7663
2.97466	15.7573
2.97295	15.7853
2.97125	15.7603
2.96955	15.7917
2.96785	15.8715
2.96615	15.8
2.96446	15.6904
2.96276	15.6072
2.96107	15.6115
2.95938	15.7595
2.95769	15.7667
2.95601	15.6713
2.95432	15.6212
2.95264	15.7179
2.95096	15.7906
2.94928	15.7447
2.9476	15.7177
2.94593	15.7262
2.94425	15.8173
2.94258	15.7979
2.94092	15.7173
2.93925	15.5815
2.93758	15.5102
2.93592	15.5522
2.93426	15.6754
2.9326	15.6693
2.93094	15.6537
2.92928	15.7115
2.92763	15.8536
2.92598	15.8558
2.92433	15.8186
2.92268	15.8146
2.92103	15.8987
2.91939	15.852
2.91775	15.7569
2.9161	15.7899
2.91447	15.7813
2.91283	15.812
2.91119	15.9101
2.90956	15.9263
2.90793	15.953
2.9063	15.9653
2.90467	15.9155
2.90304	15.9216
2.90142	15.9897
2.89979	15.9425
2.89817	15.9731
2.89656	15.977
2.89494	16.0099
2.89332	15.9336
2.89171	15.8429
2.8901	15.9149
2.88849	15.8061
2.88688	15.8516
2.88527	16.0319
2.88367	15.9189
2.88206	15.8669
2.88046	15.9938
2.87886	16.0473
2.87727	16.0267
2.87567	15.9534
2.87408	15.9129
2.87248	15.9858
2.87089	16.079
2.8693	16.1019
2.86772	16.1708
2.86613	16.1101
2.86455	15.915
2.86297	15.9182
2.86139	16.1683
2.85981	16.3193
2.85823	16.2855
2.85666	16.1357
2.85508	16.1133
2.85351	16.2354
2.85194	16.2448
2.85038	16.0598
2.84881	16.0675
2.84724	16.1166
2.84568	16.1518
2.84412	16.0755
2.84256	16.0667
2.841	16.1308
2.83945	16.2086
2.83789	16.2465
2.83634	16.0982
2.83479	15.967
2.83324	15.9887
2.83169	16.0149
2.83015	16.0563
2.82861	16.196
2.82706	16.2033
2.82552	16.2048
2.82398	16.1975
2.82245	16.2332
2.82091	16.281
2.81938	16.257
2.81784	16.1684
2.81631	16.2237
2.81479	16.3863
2.81326	16.5048
2.81173	16.3052
2.81021	16.1893
2.80869	16.323
2.80716	16.3946
2.80565	16.3546
2.80413	16.3798
2.80261	16.4614
2.8011	16.3414
2.79959	16.4633
2.79808	16.484
2.79657	16.3082
2.79506	16.3486
2.79355	16.516
2.79205	16.6005
2.79055	16.5922
2.78904	16.6991
2.78754	16.8086
2.78605	16.5143
2.78455	16.4043
2.78306	16.4415
2.78156	16.474
2.78007	16.6035
2.77858	16.5638
2.77709	16.5835
2.77561	16.5927
2.77412	16.5047
2.77264	16.6012
2.77116	16.7736
2.76968	16.8274
2.7682	16.7683
2.76672	16.7283
2.76524	16.7541
2.76377	16.8796
2.7623	16.7086
2.76083	16.5733
2.75936	16.6094
2.75789	16.6519
2.75642	16.9031
2.75496	17.0066
2.7535	16.8425
2.75203	16.6801
2.75057	16.587
2.74912	16.5696
2.74766	16.5328
2.7462	16.5594
2.74475	16.6208
2.7433	16.6894
2.74185	16.9383
2.7404	17.1315
2.73895	17.0351
2.7375	16.8325
2.73606	16.8718
2.73462	16.9582
2.73318	16.8244
2.73174	16.7298
2.7303	16.6785
2.72886	16.6962
2.72742	16.6455
2.72599	16.671
2.72456	16.8965
2.72313	16.8877
2.7217	16.9866
2.72027	16.9846
2.71884	16.7387
2.71742	16.7559
2.71599	16.629
2.71457	16.5444
2.71315	16.6221
2.71173	16.9312
2.71032	17.1309
2.7089	16.9513
2.70748	16.8598
2.70607	16.6782
2.70466	16.5301
2.70325	16.6585
2.70184	16.7543
2.70043	16.6902
2.69903	16.674
2.69762	16.7739
2.69622	16.9192
2.69482	17.0317
2.69342	16.9929
2.69202	16.7342
2.69062	16.6344
2.68923	16.6973
2.68783	16.6397
2.68644	16.5795
2.68505	16.6994
2.68366	16.8392
2.68227	16.6995
2.68089	16.6768
2.6795	16.9806
2.67812	17.0394
2.67673	17.1335
2.67535	17.0898
2.67397	16.8775
2.6726	16.8001
2.67122	17.0881
2.66984	17.2164
2.66847	17.002
2.6671	17.1305
2.66572	17.0762
2.66435	16.9117
2.66299	16.7306
2.66162	16.7124
2.66025	16.7949
2.65889	16.7833
2.65753	16.6543
2.65616	16.6586
2.65481	16.665
2.65345	16.7266
2.65209	16.8227
2.65073	16.7157
2.64938	16.609
2.64803	16.6537
2.64667	16.6554
2.64532	16.7936
2.64397	16.8397
2.64263	16.7589
2.64128	16.8397
2.63994	16.8066
2.63859	16.6983
2.63725	16.6182
2.63591	16.7005
2.63457	16.81
2.63323	16.8226
2.6319	16.925
2.63056	17.1164
2.62923	16.9544
2.62789	16.7761
2.62656	16.9912
2.62523	16.9748
2.6239	16.7527
2.62258	16.694
2.62125	17.0104
2.61993	17.0973
2.6186	16.8142
2.61728	16.9288
2.61596	17.0581
2.61464	17.0227
2.61332	16.8751
2.61201	16.7988
2.61069	16.7268
2.60938	16.7277
2.60807	16.8414
2.60675	16.891
2.60544	17.0256
2.60414	17.0081
2.60283	16.9325
2.60152	16.8716
2.60022	16.8611
2.59891	16.8146
2.59761	16.8719
2.59631	17.1569
2.59501	17.6206
2.59371	17.3905
2.59242	16.9656
2.59112	16.7767
2.58983	16.6757
2.58853	16.8714
2.58724	17.0558
2.58595	16.844
2.58466	16.8045
2.58338	16.9107
2.58209	16.9827
2.5808	16.9899
2.57952	16.8233
2.57824	16.7373
2.57695	16.763
2.57567	16.8332
2.5744	16.9137
2.57312	16.95
2.57184	16.8754
2.57057	16.9418
2.56929	16.877
2.56802	16.7981
2.56675	16.8617
2.56548	16.9117
2.56421	16.9432
2.56294	16.867
2.56168	16.9215
2.56041	16.9736
2.55915	16.8946
2.55789	16.7823
2.55662	16.7108
2.55536	16.6773
2.5541	16.7225
2.55285	16.8298
2.55159	16.8535
2.55034	16.8467
2.54908	16.7995
2.54783	16.7614
2.54658	16.7998
2.54533	16.82
2.54408	16.8753
2.54283	16.9774
2.54159	16.9083
2.54034	16.7649
2.5391	16.7822
2.53785	16.7503
2.53661	16.7976
2.53537	16.8295
2.53413	16.8179
2.53289	16.7677
2.53166	16.8929
2.53042	17.0377
2.52919	16.9451
2.52795	16.8797
2.52672	16.9351
2.52549	16.944
2.52426	16.7937
2.52303	16.7104
2.52181	16.6517
2.52058	16.7506
2.51936	16.9093
2.51813	16.8887
2.51691	16.8207
2.51569	16.7452
2.51447	16.7193
2.51325	16.81
2.51203	16.8048
2.51082	16.7699
2.5096	16.8113
2.50839	16.9161
2.50717	16.9823
2.50596	16.9321
2.50475	16.9212
2.50354	16.9274
2.50233	16.8103
2.50113	16.7236
2.49992	16.7427
2.49872	16.9542
2.49751	16.9981
2.49631	17.0057
2.49511	16.9654
2.49391	16.8757
2.49271	16.8949
2.49151	16.9252
2.49031	16.9444
2.48912	16.935
2.48792	17.0041
2.48673	16.8822
2.48554	16.7992
2.48435	16.8571
2.48316	16.8465
2.48197	16.7628
2.48078	16.7474
2.4796	16.8581
2.47841	16.8973
2.47723	16.9555
2.47604	16.9715
2.47486	16.8927
2.47368	16.9053
2.4725	16.8518
2.47132	16.8448
2.47014	16.8897
2.46897	16.9903
2.46779	16.8747
2.46662	16.8385
2.46545	16.8632
2.46427	16.8827
2.4631	16.9259
2.46193	16.9446
2.46077	16.913
2.4596	16.8929
2.45843	16.8733
2.45727	16.9203
2.4561	16.9443
2.45494	16.8582
2.45378	16.798
2.45262	16.858
2.45146	16.9162
2.4503	16.9094
2.44914	16.904
2.44799	16.8808
2.44683	17.0304
2.44568	17.0404
2.44452	16.8447
2.44337	16.7342
2.44222	16.7543
2.44107	16.7978
2.43992	16.8692
2.43877	16.9863
2.43763	17.1168
2.43648	17.1204
2.43534	16.9912
2.43419	16.8925
2.43305	16.8262
2.43191	16.8532
2.43077	16.8703
2.42963	16.9493
2.42849	16.9874
2.42736	16.8758
2.42622	16.8781
2.42509	17.0378
2.42395	16.964
2.42282	16.949
2.42169	16.998
2.42056	16.9618
2.41943	16.9399
2.4183	17.0559
2.41717	17.0957
2.41605	16.9671
2.41492	16.9255
2.4138	16.8828
2.41267	16.7074
2.41155	16.6969
2.41043	16.7599
2.40931	16.802
2.40819	16.8387
2.40707	16.9009
2.40595	16.8201
2.40484	16.8106
2.40372	16.7656
2.40261	16.8901
2.4015	16.9588
2.40039	16.8329
2.39928	16.8764
2.39817	16.9577
2.39706	16.9011
2.39595	16.9113
2.39484	16.9504
2.39374	16.8646
2.39263	16.9224
2.39153	16.9577
2.39043	16.9762
2.38932	16.9454
2.38822	16.8594
2.38712	16.8304
2.38603	16.8126
2.38493	16.9317
2.38383	16.9597
2.38274	16.8539
2.38164	16.8406
2.38055	16.9745
2.37946	17.0664
2.37836	17.0583
2.37727	16.9736
2.37618	16.9555
2.3751	17.0548
2.37401	17.1845
2.37292	17.0311
2.37184	16.9153
2.37075	16.8731
2.36967	16.8273
2.36859	16.9095
2.3675	16.9429
2.36642	16.9953
2.36534	16.9066
2.36427	16.8118
2.36319	16.8014
2.36211	16.7889
2.36104	16.8171
2.35996	16.8562
2.35889	16.9383
2.35781	17.001
2.35674	17.0356
2.35567	17.0158
2.3546	16.9875
2.35353	17.0101
2.35247	16.9783
2.3514	16.9347
2.35033	16.8747
2.34927	16.7969
2.3482	16.987
2.34714	17.1166
2.34608	16.9751
2.34502	16.7964
2.34396	16.7977
2.3429	16.9512
2.34184	17.0066
2.34078	17.1308
2.33973	17.0757
2.33867	16.7815
2.33762	16.646
2.33656	16.8762
2.33551	16.9893
2.33446	16.9751
2.33341	17.0681
2.33236	17.1812
2.33131	17.191
2.33026	16.9955
2.32922	16.947
2.32817	16.8523
2.32712	16.7704
2.32608	16.8563
2.32504	16.9898
2.324	16.9262
2.32295	16.9086
2.32191	16.951
2.32087	17.0102
2.31984	17.0165
2.3188	17.0587
2.31776	17.0798
2.31673	16.9479
2.31569	16.9145
2.31466	16.9661
2.31362	16.9929
2.31259	16.9964
2.31156	16.958
2.31053	16.9824
2.3095	16.943
2.30847	16.8168
2.30745	16.9134
2.30642	17.1494
2.3054	17.2083
2.30437	17.1317
2.30335	17.165
2.30232	17.2649
2.3013	17.0714
2.30028	17.0494
2.29926	17.0226
2.29824	16.9537
2.29722	17.0081
2.29621	16.9757
2.29519	16.958
2.29417	16.9899
2.29316	16.9554
2.29215	17.0388
2.29113	17.0872
2.29012	17.0757
2.28911	17.163
2.2881	17.1125
2.28709	17.111
2.28608	17.0602
2.28507	17.0036
2.28407	16.9163
2.28306	16.8989
2.28206	16.9145
2.28105	16.8792
2.28005	16.8323
2.27905	17.0367
2.27805	17.0238
2.27705	16.8357
2.27605	16.8754
2.27505	17.0441
2.27405	17.0777
2.27305	17.0415
2.27206	16.947
2.27106	17.0104
2.27007	17.061
2.26907	16.8158
2.26808	16.8809
2.26709	17.0519
2.2661	17.0215
2.26511	16.9329
2.26412	16.8766
2.26313	16.9957
2.26214	17.1281
2.26116	17.0369
2.26017	16.8723
2.25919	16.8824
2.2582	17.1105
2.25722	17.1926
2.25624	17.1874
2.25526	17.2094
2.25428	17.1238
2.2533	16.9087
2.25232	16.8065
2.25134	16.9451
2.25036	17.0658
2.24939	17.0846
2.24841	16.9505
2.24744	16.9784
2.24646	17.0658
2.24549	17.0841
2.24452	17.0674
2.24355	17.0019
2.24257	16.9277
2.24161	17.0158
2.24064	17.081
2.23967	17.1334
2.2387	17.0798
2.23774	16.9789
2.23677	16.9716
2.23581	17.001
2.23484	17.0654
2.23388	17.1786
2.23292	17.1944
2.23196	17.1211
2.231	17.0363
2.23004	16.8474
2.22908	16.9288
2.22812	17.0366
2.22716	16.9801
2.22621	17.1375
2.22525	17.2475
2.2243	17.1402
2.22334	17.1855
2.22239	17.22
2.22144	17.1689
2.22049	16.997
2.21953	16.9716
2.21859	17.0718
2.21764	17.0103
2.21669	16.8874
2.21574	16.932
2.21479	17.0491
2.21385	17.1334
2.2129	17.0325
2.21196	16.9475
2.21102	17.0442
2.21007	17.1473
2.20913	17.2244
2.20819	17.153
2.20725	17.0858
2.20631	17.0903
2.20537	17.0381
2.20444	16.9586
2.2035	17.0819
2.20256	17.1338
2.20163	16.98
2.20069	16.8476
2.19976	16.9118
2.19883	17.0838
2.19789	17.1752
2.19696	17.1812
2.19603	17.1842
2.1951	17.1365
2.19417	17.0479
2.19325	17.0845
2.19232	17.1415
2.19139	17.037
2.19047	16.924
2.18954	17.0351
2.18862	17.0148
2.18769	16.8968
2.18677	17.0581
2.18585	17.1863
2.18493	17.1932
2.18401	17.1495
2.18309	17.0489
2.18217	17.0114
2.18125	17.1886
2.18033	17.1581
2.17942	16.9854
2.1785	16.9942
2.17759	17.1491
2.17667	17.231
2.17576	17.2398
2.17485	17.1902
2.17393	16.9889
2.17302	16.9557
2.17211	17.0535
2.1712	17.1041
2.17029	17.0769
2.16939	16.9946
2.16848	17.1843
2.16757	17.0595
2.16667	16.8679
2.16576	16.9722
2.16486	17.0455
2.16395	16.9506
2.16305	17.0264
2.16215	17.0633
2.16125	17.1067
2.16035	17.1589
2.15945	17.1474
2.15855	17.099
2.15765	17.2107
2.15675	17.2541
2.15586	17.1938
2.15496	16.9669
2.15406	16.8599
2.15317	16.8512
2.15228	16.812
2.15138	16.9214
2.15049	17.146
2.1496	17.2979
2.14871	17.3166
2.14782	17.3673
2.14693	17.3225
2.14604	17.2873
2.14515	17.2616
2.14427	17.1207
2.14338	16.9541
2.14249	16.944
2.14161	17.0506
2.14072	17.1026
2.13984	17.124
2.13896	17.0092
2.13808	16.9766
2.13719	16.9573
2.13631	16.9169
2.13543	16.9417
2.13455	17.0233
2.13368	17.0637
2.1328	17.1027
2.13192	17.2236
2.13105	17.1664
2.13017	16.9735
2.1293	16.929
2.12842	16.8919
2.12755	17.0264
2.12668	17.158
2.1258	17.1564
2.12493	16.9783
2.12406	16.9583
2.12319	16.9193
2.12232	17.0221
2.12145	17.2509
2.12059	17.2002
2.11972	17.2925
2.11885	17.2608
2.11799	17.1289
2.11712	16.979
2.11626	16.9327
2.1154	17.1705
2.11453	17.2647
2.11367	17.064
2.11281	17.0656
2.11195	17.3669
2.11109	17.4808
2.11023	17.4051
2.10937	17.1829
2.10851	17.0682
2.10766	16.9439
2.1068	16.8655
2.10594	17.0873
2.10509	17.1926
2.10423	17.2487
2.10338	17.2242
2.10253	17.0296
2.10168	17.0464
2.10082	17.1708
2.09997	17.2558
2.09912	17.2528
2.09827	17.2985
2.09742	17.2164
2.09658	17.1119
2.09573	16.9502
2.09488	17.0746
2.09404	17.2449
2.09319	17.4489
2.09235	17.3197
2.0915	16.9343
2.09066	16.7949
2.08982	17.023
2.08897	17.1435
2.08813	17.2864
2.08729	17.2759
2.08645	17.1193
2.08561	16.8948
2.08477	16.6641
2.08394	16.6895
2.0831	17.0074
2.08226	17.2712
2.08143	17.5589
2.08059	17.4554
2.07976	17.0465
2.07892	16.9722
2.07809	16.919
2.07726	16.9266
2.07643	16.8444
2.07559	16.8741
2.07476	17.0719
2.07393	17.0881
2.0731	17.0911
2.07228	16.9794
2.07145	17.1432
2.07062	17.553
2.06979	17.2626
2.06897	16.9821
2.06814	17.0827
2.06732	17.0501
2.06649	17.1014
2.06567	16.9321
2.06485	17.1678
2.06403	17.3883
2.0632	17.0232
2.06238	17.1259
2.06156	17.2926
2.06074	17.2009
2.05993	17.0989
2.05911	16.5699
2.05829	16.5774
2.05747	16.8715
2.05666	16.83
2.05584	16.9056
2.05503	17.1177
2.05421	17.3119
2.0534	17.3211
2.05259	17.3697
2.05177	17.4762
2.05096	17.2067
2.05015	16.9731
2.04934	16.9954
2.04853	17.0925
2.04772	17.0544
2.04691	17.0117
2.04611	17.0511
2.0453	17.0956
2.04449	17.0737
2.04369	17.1713
2.04288	17.2464
2.04208	17.2762
2.04127	17.1776
2.04047	17.1796
2.03967	17.3283
2.03886	17.3783
2.03806	17.2538
2.03726	17.209
2.03646	17.1881
2.03566	17.0506
2.03486	17.0823
2.03407	17.1232
2.03327	17.0501
2.03247	17.1367
2.03167	17.1352
2.03088	17.333
2.03008	17.3134
2.02929	17.1196
2.0285	17.0615
2.0277	17.105
2.02691	16.9716
2.02612	16.7282
2.02533	16.8045
2.02453	17.1427
2.02374	17.3444
2.02295	17.2162
2.02217	17.0615
2.02138	17.0034
2.02059	17.093
2.0198	17.2663
2.01902	17.2379
2.01823	17.2486
2.01744	17.1416
2.01666	17.1124
2.01588	17.1651
2.01509	17.1994
2.01431	17.1922
2.01353	17.3176
2.01275	17.3255
2.01196	17.2644
2.01118	17.1235
2.0104	16.9472
2.00963	16.8881
2.00885	16.96
2.00807	17.0435
2.00729	17.1179
2.00651	17.0927
2.00574	17.1253
2.00496	17.1145
2.00419	17.1427
2.00341	17.2263
2.00264	17.3409
2.00187	17.4133
2.00109	17.1972
2.00032	16.9357
