Name: Magnetite Fe^2+Fe_2^3+O_4
Type: Mineral
Class: Oxides
Subclass: 
Particle Size: 0-45um
Sample No.: O-4A
Owner: JPL
Wavelength range: IR
Origin: Canada, Ontario, Haliburton County, Wilberforce
Collected by Ward's
Description: 





Measurement: Hemispherical reflectance
First Column: X
Second Column: Y
X Units:  Wavelength (micrometers)
Y Units:  Reflectance (percent)
First X Value: 15.3853
Last X Value: 2.00032
Number of X Values: 2256
Additional information: o04aa.txt
 
15.3853	10.3697
15.3397	10.2111
15.2945	10.2681
15.2495	10.577
15.2048	10.7889
15.1603	10.5703
15.1161	10.4877
15.0722	10.6671
15.0285	10.4178
14.9851	10.316
14.9419	10.3639
14.8989	10.3385
14.8563	10.3521
14.8138	10.4324
14.7716	10.4622
14.7296	10.2454
14.6879	10.1682
14.6464	10.0805
14.6052	10.1134
14.5641	10.0402
14.5233	9.8938
14.4828	9.97877
14.4424	10.0958
14.4023	10.03
14.3624	9.84248
14.3227	9.96062
14.2833	10.0441
14.244	9.99364
14.205	10.0275
14.1662	9.83445
14.1276	9.75322
14.0892	9.95171
14.051	9.96911
14.0131	9.84543
13.9753	9.77356
13.9377	9.72579
13.9004	9.67107
13.8632	9.54743
13.8262	9.68608
13.7895	9.8144
13.7529	9.61768
13.7165	9.44907
13.6803	9.54066
13.6443	9.58487
13.6085	9.40512
13.5729	9.27515
13.5374	9.53438
13.5022	9.58142
13.4671	9.3128
13.4322	9.26978
13.3975	9.39595
13.363	9.39764
13.3286	9.25465
13.2944	9.11205
13.2604	9.13419
13.2266	9.2307
13.193	9.18846
13.1595	9.11298
13.1262	9.04304
13.093	9.11212
13.06	9.21139
13.0272	9.02178
12.9946	8.81378
12.9621	8.93462
12.9298	8.83884
12.8976	8.78178
12.8656	9.01683
12.8337	9.00145
12.8021	8.99793
12.7705	9.02313
12.7391	9.01419
12.7079	9.00058
12.6769	8.97473
12.6459	8.95226
12.6152	8.93372
12.5845	9.00725
12.5541	8.91542
12.5238	8.91908
12.4936	9.14304
12.4635	9.13988
12.4337	9.03241
12.4039	8.99321
12.3743	9.02689
12.3448	8.99609
12.3155	8.89824
12.2863	9.03051
12.2573	9.08396
12.2284	9.01663
12.1996	9.00528
12.171	8.91196
12.1425	8.91896
12.1141	9.03659
12.0859	9.06035
12.0578	9.0243
12.0298	9.0905
12.0019	9.23786
11.9742	9.14092
11.9466	8.97711
11.9192	8.95613
11.8918	9.03093
11.8646	9.07595
11.8375	9.11727
11.8106	9.11019
11.7837	9.2017
11.757	9.29353
11.7304	9.26078
11.7039	9.21869
11.6776	9.16264
11.6513	9.1467
11.6252	9.17761
11.5992	9.25244
11.5733	9.20835
11.5475	9.09878
11.5219	9.07556
11.4963	9.10719
11.4709	9.13353
11.4455	9.20607
11.4203	9.31818
11.3952	9.34192
11.3702	9.168
11.3454	9.04524
11.3206	9.18876
11.2959	9.27519
11.2714	9.30356
11.2469	9.24097
11.2226	9.19791
11.1983	9.25051
11.1742	9.3727
11.1502	9.33423
11.1263	9.15552
11.1024	9.03948
11.0787	9.00543
11.0551	9.08483
11.0316	9.23186
11.0081	9.30089
10.9848	9.24687
10.9616	9.25884
10.9385	9.28384
10.9154	9.25321
10.8925	9.19853
10.8697	9.23164
10.8469	9.15156
10.8243	9.02834
10.8017	9.09817
10.7793	9.18709
10.7569	9.24281
10.7346	9.36805
10.7125	9.34546
10.6904	9.19409
10.6684	9.28548
10.6465	9.45041
10.6247	9.51358
10.6029	9.38673
10.5813	9.42986
10.5597	9.3728
10.5383	9.27622
10.5169	9.32543
10.4956	9.28601
10.4744	9.36391
10.4533	9.34169
10.4323	9.35884
10.4113	9.4987
10.3904	9.5133
10.3697	9.44573
10.349	9.43931
10.3284	9.42087
10.3078	9.43453
10.2874	9.50889
10.267	9.55982
10.2467	9.61825
10.2265	9.6918
10.2064	9.62093
10.1863	9.49954
10.1663	9.51633
10.1464	9.63748
10.1266	9.78637
10.1069	9.86717
10.0872	9.83175
10.0676	9.78316
10.0481	9.89113
10.0287	9.91582
10.0093	9.83403
9.99005	9.85307
9.97084	9.86824
9.95169	9.81116
9.93263	9.71669
9.91364	9.74744
9.89472	9.8595
9.87587	9.8658
9.8571	9.98487
9.83839	10.1131
9.81976	10.077
9.80119	10.0632
9.78271	10.0602
9.76428	10.0527
9.74592	10.1161
9.72764	10.211
9.70943	10.1533
9.69128	10.1225
9.6732	10.1363
9.65518	10.0882
9.63724	10.0802
9.61935	10.0935
9.60155	10.1441
9.5838	10.1909
9.56611	10.1912
9.5485	10.1274
9.53094	10.1128
9.51345	10.1707
9.49604	10.1655
9.47867	10.2451
9.46137	10.3411
9.44414	10.2836
9.42697	10.2636
9.40986	10.2096
9.39281	10.2677
9.37583	10.3024
9.35891	10.3342
9.34204	10.4414
9.32524	10.4513
9.3085	10.3594
9.29182	10.3138
9.27519	10.3649
9.25863	10.4152
9.24213	10.4247
9.22568	10.2786
9.2093	10.2561
9.19297	10.348
9.17669	10.4172
9.16048	10.4658
9.14433	10.3435
9.12823	10.2695
9.11218	10.3448
9.0962	10.4536
9.08027	10.4446
9.06439	10.3816
9.04858	10.4645
9.03281	10.455
9.0171	10.3961
9.00145	10.5811
8.98585	10.5722
8.9703	10.3687
8.9548	10.3001
8.93937	10.3019
8.92398	10.1956
8.90865	10.2518
8.89337	10.3712
8.87814	10.4556
8.86296	10.4691
8.84784	10.3655
8.83277	10.3785
8.81774	10.4443
8.80277	10.3394
8.78786	10.1507
8.77298	10.1795
8.75816	10.3188
8.7434	10.3434
8.72868	10.3384
8.714	10.3974
8.69938	10.415
8.68481	10.393
8.67029	10.5569
8.65581	10.5292
8.64139	10.2875
8.62701	10.2276
8.61268	10.3684
8.5984	10.5247
8.58416	10.5019
8.56997	10.4728
8.55583	10.3959
8.54174	10.3047
8.52769	10.2961
8.51368	10.3208
8.49973	10.2886
8.48582	10.4198
8.47195	10.5479
8.45813	10.5
8.44436	10.3954
8.43062	10.4174
8.41693	10.474
8.4033	10.5416
8.3897	10.441
8.37614	10.242
8.36264	10.3051
8.34917	10.3629
8.33574	10.401
8.32236	10.4554
8.30903	10.4822
8.29573	10.4246
8.28248	10.355
8.26927	10.3603
8.2561	10.3565
8.24298	10.4094
8.2299	10.4842
8.21685	10.5351
8.20385	10.4838
8.19089	10.3832
8.17797	10.3551
8.16509	10.4715
8.15225	10.5204
8.13946	10.4954
8.1267	10.5182
8.11398	10.5527
8.10131	10.5473
8.08867	10.5548
8.07606	10.5131
8.0635	10.4032
8.05099	10.3956
8.0385	10.4586
8.02606	10.5153
8.01366	10.5656
8.00129	10.4909
7.98896	10.416
7.97667	10.468
7.96442	10.4942
7.9522	10.4225
7.94002	10.4429
7.92788	10.4625
7.91578	10.4775
7.90371	10.4919
7.89168	10.4817
7.87969	10.4909
7.86773	10.4808
7.85581	10.524
7.84392	10.5185
7.83207	10.491
7.82026	10.5179
7.80849	10.4815
7.79674	10.4239
7.78503	10.4717
7.77337	10.5545
7.76173	10.5439
7.75012	10.5626
7.73856	10.6203
7.72703	10.5571
7.71553	10.517
7.70406	10.5376
7.69263	10.5588
7.68123	10.5401
7.66987	10.5768
7.65855	10.533
7.64725	10.4777
7.63598	10.5184
7.62475	10.5579
7.61356	10.5993
7.60239	10.6213
7.59126	10.5767
7.58017	10.5205
7.5691	10.5557
7.55806	10.5744
7.54707	10.5326
7.5361	10.5527
7.52516	10.6017
7.51425	10.5899
7.50338	10.6053
7.49253	10.5929
7.48172	10.585
7.47094	10.5707
7.46019	10.5745
7.44947	10.5816
7.43879	10.6052
7.42813	10.656
7.4175	10.6368
7.4069	10.5923
7.39634	10.6031
7.3858	10.6293
7.37529	10.6684
7.36482	10.6366
7.35437	10.5489
7.34396	10.6165
7.33357	10.7205
7.32321	10.7347
7.31288	10.7019
7.30258	10.6811
7.29231	10.7155
7.28207	10.7585
7.27185	10.7934
7.26167	10.7806
7.25152	10.7428
7.24139	10.6821
7.23129	10.6469
7.22122	10.6753
7.21117	10.7371
7.20116	10.7541
7.19117	10.8148
7.18121	10.803
7.17128	10.7937
7.16137	10.7947
7.1515	10.7805
7.14164	10.7453
7.13182	10.773
7.12203	10.696
7.11225	10.6344
7.10251	10.6658
7.0928	10.6884
7.08311	10.7087
7.07344	10.7604
7.06381	10.779
7.0542	10.856
7.04461	10.9034
7.03506	10.7908
7.02552	10.7494
7.01601	10.7385
7.00653	10.7283
6.99708	10.7911
6.98765	10.8575
6.97824	10.827
6.96886	10.7924
6.95951	10.8453
6.95018	10.8477
6.94087	10.8542
6.9316	10.8535
6.92234	10.8589
6.91311	10.8714
6.90391	10.773
6.89473	10.7351
6.88557	10.8054
6.87644	10.8569
6.86733	11.0093
6.85824	10.9846
6.84918	10.8683
6.84015	10.8838
6.83114	10.8703
6.82215	10.8413
6.81319	10.8269
6.80424	10.8558
6.79532	10.9616
6.78643	10.9949
6.77756	10.981
6.76871	10.9306
6.75989	10.7926
6.75109	10.8084
6.74231	10.7741
6.73355	10.7527
6.72482	10.8459
6.71611	10.9067
6.70742	10.8175
6.69875	10.7148
6.69011	10.7518
6.68149	10.8649
6.67289	10.8381
6.66431	10.7737
6.65576	10.793
6.64722	10.9308
6.63871	11.0355
6.63022	10.9249
6.62175	10.8713
6.61331	10.8835
6.60488	10.8071
6.59648	10.8894
6.5881	11.0214
6.57974	11.0593
6.5714	11.0145
6.56308	11.0078
6.55478	11.0031
6.54651	10.9038
6.53825	10.8323
6.53001	10.8518
6.5218	10.9184
6.51361	10.8953
6.50544	11.003
6.49729	11.1954
6.48915	11.1587
6.48104	11.0492
6.47295	10.9565
6.46488	10.9112
6.45683	10.8755
6.4488	10.8085
6.44079	10.7861
6.4328	10.9326
6.42482	11.1226
6.41687	11.3994
6.40894	11.291
6.40103	10.9818
6.39314	10.9022
6.38526	10.9251
6.37741	10.915
6.36957	10.892
6.36176	10.8702
6.35396	10.9557
6.34618	11.0813
6.33843	10.9859
6.33069	10.8729
6.32297	10.8656
6.31527	10.8989
6.30758	10.9561
6.29992	10.9052
6.29227	10.8203
6.28465	10.865
6.27704	10.9213
6.26945	10.9618
6.26188	10.8414
6.25432	10.7935
6.24679	10.8578
6.23927	10.9389
6.23177	10.9069
6.22429	10.8699
6.21683	10.8926
6.20938	10.8304
6.20195	10.8587
6.19454	10.9616
6.18715	11.0561
6.17978	11.0227
6.17242	10.8893
6.16508	10.9138
6.15776	10.9685
6.15045	10.9982
6.14317	10.9824
6.1359	10.9668
6.12864	10.8704
6.12141	10.9394
6.11419	11.0851
6.10699	11.0079
6.0998	10.9354
6.09263	10.8835
6.08549	10.8751
6.07835	11.0439
6.07123	11.0535
6.06413	10.9311
6.05705	10.9972
6.04998	11.2666
6.04293	11.1989
6.0359	10.9853
6.02888	10.9396
6.02187	10.9914
6.01489	11.0135
6.00792	10.9663
6.00096	10.8994
5.99403	11.018
5.98711	11.0536
5.9802	10.9034
5.97331	10.8834
5.96644	10.9975
5.95958	11.0115
5.95274	10.9267
5.94591	10.9066
5.9391	11.1121
5.9323	11.1364
5.92552	10.9659
5.91876	11.0122
5.91201	11.0373
5.90528	10.9815
5.89856	11.0919
5.89186	11.0897
5.88517	11.1126
5.8785	11.1811
5.87184	11.0076
5.8652	10.9184
5.85857	10.9127
5.85196	10.8674
5.84536	10.9374
5.83878	10.9885
5.83221	11.0212
5.82566	11.0745
5.81912	11.0332
5.81259	10.959
5.80608	10.9431
5.79959	10.9437
5.79311	10.901
5.78665	10.8813
5.78019	10.8472
5.77376	10.9834
5.76734	11.1184
5.76093	11.0317
5.75453	10.9416
5.74815	10.9423
5.74179	10.9067
5.73543	10.925
5.7291	10.9747
5.72277	10.969
5.71646	10.9427
5.71017	10.9451
5.70389	10.8693
5.69762	10.9194
5.69136	10.9751
5.68513	10.8895
5.6789	10.913
5.67268	10.9533
5.66648	10.8462
5.6603	10.8279
5.65413	10.9296
5.64797	10.9788
5.64182	11.0052
5.63569	11.0032
5.62957	10.9413
5.62347	10.8727
5.61737	10.8573
5.61129	10.8578
5.60522	10.9085
5.59917	10.935
5.59313	10.9397
5.5871	10.9633
5.58109	10.9797
5.57509	10.9249
5.5691	10.8654
5.56312	10.8832
5.55716	10.8722
5.55121	10.9012
5.54528	10.8418
5.53935	10.849
5.53344	10.847
5.52754	10.8522
5.52166	10.8781
5.51578	10.8917
5.50992	10.9025
5.50407	10.8552
5.49823	10.762
5.49241	10.8159
5.4866	10.8635
5.4808	10.9023
5.47501	10.9395
5.46923	10.9677
5.46347	10.9818
5.45772	10.9243
5.45198	10.8776
5.44625	10.7801
5.44054	10.7887
5.43484	10.8571
5.42914	10.864
5.42347	10.8988
5.4178	10.8413
5.41214	10.7776
5.4065	10.8839
5.40087	10.9985
5.39525	10.9527
5.38964	10.8995
5.38404	10.8668
5.37846	10.8773
5.37288	10.9303
5.36732	10.9177
5.36177	10.8704
5.35623	10.8299
5.35071	10.826
5.34519	10.8313
5.33968	10.8374
5.33419	10.8616
5.32871	10.9173
5.32324	10.9508
5.31778	10.8972
5.31233	10.8447
5.30689	10.7856
5.30147	10.7935
5.29605	10.8917
5.29065	10.9269
5.28525	10.9517
5.27987	10.9674
5.2745	10.9
5.26914	10.8349
5.26379	10.8948
5.25845	10.9264
5.25312	10.8691
5.24781	10.8278
5.2425	10.7989
5.23721	10.8403
5.23192	10.898
5.22665	10.9575
5.22138	10.9549
5.21613	10.8929
5.21089	10.9243
5.20566	10.9854
5.20044	10.9348
5.19522	10.9103
5.19002	10.9074
5.18483	10.8465
5.17965	10.8545
5.17448	10.9559
5.16933	10.8942
5.16418	10.7964
5.15904	10.8038
5.15391	10.8584
5.14879	10.9375
5.14368	10.9968
5.13859	10.9423
5.1335	10.9062
5.12842	10.9122
5.12335	10.9451
5.1183	10.898
5.11325	10.9248
5.10821	10.9367
5.10318	10.9524
5.09817	10.9404
5.09316	10.8673
5.08816	10.8596
5.08317	10.9078
5.07819	10.9361
5.07322	10.9309
5.06826	10.9719
5.06331	10.9205
5.05837	10.8122
5.05344	10.8633
5.04852	10.965
5.04361	10.9161
5.03871	10.8274
5.03382	10.8499
5.02894	10.8785
5.02406	10.9383
5.0192	10.9459
5.01435	10.9266
5.0095	10.8797
5.00467	10.8616
4.99984	10.8885
4.99502	10.8777
4.99021	10.8981
4.98542	10.9454
4.98063	10.9452
4.97585	10.9534
4.97108	10.9954
4.96632	10.9721
4.96156	10.9158
4.95682	10.8964
4.95209	10.8391
4.94736	10.8222
4.94264	10.8934
4.93794	10.9562
4.93324	11.0538
4.92855	10.9898
4.92387	10.8151
4.9192	10.8547
4.91453	10.9055
4.90988	10.8897
4.90524	10.8931
4.9006	10.9058
4.89597	10.9375
4.89135	10.9474
4.88674	10.8869
4.88214	10.886
4.87755	10.9542
4.87296	10.9669
4.86839	10.9646
4.86382	10.9414
4.85926	10.9413
4.85471	10.9433
4.85017	10.9045
4.84564	10.9037
4.84111	10.9184
4.8366	10.9348
4.83209	10.9011
4.82759	10.9282
4.8231	10.9721
4.81862	10.9816
4.81415	10.9776
4.80968	10.9319
4.80522	10.896
4.80077	10.9571
4.79633	10.967
4.7919	10.9178
4.78747	10.8896
4.78306	10.8985
4.77865	10.9529
4.77425	10.9743
4.76986	10.9527
4.76547	10.9517
4.7611	10.9745
4.75673	10.986
4.75237	10.9447
4.74802	10.9361
4.74367	10.9222
4.73934	10.8968
4.73501	10.8875
4.73069	10.9082
4.72638	10.9863
4.72207	10.9556
4.71777	10.8494
4.71348	10.9283
4.7092	11.002
4.70493	10.9903
4.70066	10.9638
4.69641	10.9302
4.69216	10.9588
4.68791	10.9764
4.68368	10.9902
4.67945	10.9601
4.67523	10.9238
4.67102	10.9427
4.66682	10.9736
4.66262	11.0061
4.65843	10.9906
4.65425	10.9541
4.65007	10.9237
4.64591	10.9659
4.64175	10.9919
4.6376	10.9669
4.63345	10.9992
4.62932	10.9831
4.62519	10.9856
4.62106	10.9231
4.61695	10.9294
4.61284	10.9475
4.60874	10.9018
4.60465	10.8748
4.60056	10.8943
4.59648	10.9776
4.59241	11.0332
4.58835	11.0817
4.58429	10.9689
4.58024	10.894
4.5762	10.9288
4.57216	10.9505
4.56814	10.9755
4.56411	11.0159
4.5601	11.0094
4.55609	10.9283
4.55209	10.8908
4.5481	10.9331
4.54411	10.9426
4.54013	10.8969
4.53616	10.9584
4.5322	11.0153
4.52824	11.0277
4.52429	10.9735
4.52034	10.9491
4.51641	10.8958
4.51247	10.8977
4.50855	10.9147
4.50463	10.9492
4.50072	11.0004
4.49682	10.9752
4.49292	10.9513
4.48903	10.9245
4.48515	10.9496
4.48127	10.9874
4.4774	10.98
4.47354	10.9763
4.46968	11.0366
4.46584	10.993
4.46199	10.9209
4.45815	10.8785
4.45432	10.8715
4.4505	10.9172
4.44668	10.9516
4.44287	11.0157
4.43907	11.0097
4.43527	10.9676
4.43148	10.9821
4.4277	11.0292
4.42392	11.0398
4.42015	10.9892
4.41638	10.9757
4.41262	11.0095
4.40887	11.02
4.40513	10.9521
4.40139	10.8906
4.39765	10.904
4.39393	10.9146
4.39021	10.8753
4.38649	10.8766
4.38278	10.9344
4.37908	11.0325
4.37539	11.0249
4.3717	10.9383
4.36801	10.9193
4.36434	10.9025
4.36067	10.9359
4.357	11.0023
4.35335	10.9313
4.34969	10.8985
4.34605	10.9555
4.34241	10.9882
4.33877	10.9627
4.33514	10.9142
4.33152	10.9225
4.32791	10.9289
4.3243	10.9314
4.32069	10.8465
4.3171	10.7485
4.31351	10.8487
4.30992	10.9171
4.30634	10.8712
4.30277	10.8053
4.2992	10.7449
4.29564	10.691
4.29208	10.6836
4.28853	10.6882
4.28499	10.668
4.28145	10.659
4.27792	10.6874
4.27439	10.7875
4.27087	10.7937
4.26735	10.7928
4.26384	10.7476
4.26034	10.8064
4.25684	10.8577
4.25335	10.8429
4.24986	10.866
4.24638	10.7572
4.24291	10.5955
4.23944	10.559
4.23598	10.5872
4.23252	10.6146
4.22906	10.6548
4.22562	10.6903
4.22218	10.7806
4.21874	10.8044
4.21531	10.7685
4.21189	10.8113
4.20847	10.8756
4.20506	10.8542
4.20165	10.8353
4.19825	10.8654
4.19485	10.913
4.19146	10.9115
4.18807	10.8591
4.18469	10.8556
4.18132	10.8686
4.17795	10.9111
4.17458	10.9323
4.17123	10.898
4.16787	10.8984
4.16453	10.7619
4.16118	10.7535
4.15785	10.853
4.15451	10.8692
4.15119	10.893
4.14787	10.9678
4.14455	10.9314
4.14124	10.9206
4.13794	10.9406
4.13464	10.8837
4.13134	10.8865
4.12805	10.9037
4.12477	10.8623
4.12149	10.8422
4.11822	10.8829
4.11495	10.862
4.11168	10.9167
4.10843	10.9957
4.10517	10.9091
4.10192	10.8086
4.09868	10.8173
4.09545	10.8628
4.09221	10.9502
4.08899	10.9692
4.08576	10.8906
4.08255	10.8932
4.07933	10.8881
4.07613	10.8333
4.07292	10.7854
4.06973	10.81
4.06654	10.8468
4.06335	10.9541
4.06017	10.9425
4.05699	10.8644
4.05382	10.8331
4.05065	10.8916
4.04749	10.935
4.04433	10.852
4.04118	10.86
4.03803	10.8647
4.03489	10.8871
4.03175	10.895
4.02862	10.8805
4.02549	10.9006
4.02237	10.8656
4.01925	10.8532
4.01614	10.8494
4.01303	10.8023
4.00993	10.7885
4.00683	10.8072
4.00373	10.8149
4.00064	10.7644
3.99756	10.7774
3.99448	10.8104
3.9914	10.7732
3.98833	10.7688
3.98527	10.8203
3.98221	10.8172
3.97915	10.7626
3.9761	10.7102
3.97305	10.7927
3.97001	10.8581
3.96697	10.8187
3.96394	10.8405
3.96091	10.9248
3.95789	10.9292
3.95487	10.8651
3.95186	10.8447
3.94885	10.8049
3.94584	10.8229
3.94284	10.849
3.93984	10.78
3.93685	10.771
3.93386	10.7464
3.93088	10.7676
3.9279	10.8964
3.92493	10.9384
3.92196	10.7956
3.919	10.7704
3.91604	10.8052
3.91308	10.8408
3.91013	10.8372
3.90718	10.8759
3.90424	10.8906
3.9013	10.808
3.89837	10.786
3.89544	10.8186
3.89252	10.7593
3.8896	10.6972
3.88668	10.7194
3.88377	10.8013
3.88086	10.7825
3.87796	10.7575
3.87506	10.7509
3.87217	10.7737
3.86928	10.7941
3.86639	10.7726
3.86351	10.7119
3.86064	10.6341
3.85776	10.6811
3.8549	10.6934
3.85203	10.6937
3.84917	10.7693
3.84631	10.7655
3.84346	10.713
3.84062	10.8187
3.83777	10.8743
3.83494	10.7827
3.8321	10.6615
3.82927	10.7097
3.82644	10.7339
3.82362	10.742
3.82081	10.7999
3.81799	10.8408
3.81518	10.7813
3.81238	10.7388
3.80958	10.7848
3.80678	10.7616
3.80399	10.7617
3.8012	10.7323
3.79841	10.7448
3.79563	10.7018
3.79286	10.6487
3.79008	10.6645
3.78731	10.757
3.78455	10.8282
3.78179	10.7945
3.77903	10.7493
3.77628	10.8065
3.77353	10.8171
3.77079	10.7985
3.76805	10.6405
3.76531	10.6056
3.76258	10.6988
3.75985	10.6917
3.75713	10.6628
3.7544	10.6641
3.75169	10.6987
3.74898	10.7369
3.74627	10.7675
3.74356	10.7819
3.74086	10.7692
3.73816	10.7568
3.73547	10.7614
3.73278	10.7714
3.7301	10.7817
3.72741	10.7891
3.72474	10.7128
3.72206	10.6547
3.71939	10.673
3.71673	10.7033
3.71406	10.7395
3.71141	10.7345
3.70875	10.6791
3.7061	10.6893
3.70345	10.7098
3.70081	10.7748
3.69817	10.769
3.69553	10.655
3.6929	10.6511
3.69027	10.6547
3.68765	10.6208
3.68503	10.5928
3.68241	10.644
3.6798	10.681
3.67719	10.6657
3.67458	10.7103
3.67198	10.7517
3.66938	10.6829
3.66678	10.6324
3.66419	10.7352
3.66161	10.7758
3.65902	10.6339
3.65644	10.6105
3.65387	10.7083
3.65129	10.804
3.64872	10.7751
3.64616	10.7327
3.64359	10.6907
3.64103	10.6206
3.63848	10.6576
3.63593	10.6019
3.63338	10.561
3.63084	10.6523
3.6283	10.7314
3.62576	10.6919
3.62322	10.6552
3.62069	10.656
3.61817	10.603
3.61564	10.5614
3.61312	10.6072
3.61061	10.6239
3.6081	10.6201
3.60559	10.6686
3.60308	10.7422
3.60058	10.7979
3.59808	10.7588
3.59558	10.6401
3.59309	10.5903
3.59061	10.5606
3.58812	10.5581
3.58564	10.5816
3.58316	10.552
3.58069	10.5667
3.57822	10.6263
3.57575	10.7065
3.57328	10.7165
3.57082	10.6179
3.56836	10.564
3.56591	10.6192
3.56346	10.5657
3.56101	10.5581
3.55857	10.6787
3.55613	10.6916
3.55369	10.6484
3.55126	10.6098
3.54883	10.5249
3.5464	10.5069
3.54397	10.5584
3.54155	10.6563
3.53914	10.6701
3.53672	10.5885
3.53431	10.6366
3.5319	10.6135
3.5295	10.4836
3.5271	10.4807
3.5247	10.5266
3.52231	10.5861
3.51991	10.5456
3.51753	10.5536
3.51514	10.5637
3.51276	10.5966
3.51038	10.6662
3.50801	10.6695
3.50563	10.5866
3.50327	10.5201
3.5009	10.5898
3.49854	10.5912
3.49618	10.5959
3.49382	10.6026
3.49147	10.5684
3.48912	10.6115
3.48677	10.5759
3.48443	10.5311
3.48209	10.5373
3.47975	10.4706
3.47742	10.5183
3.47509	10.5966
3.47276	10.5221
3.47044	10.5183
3.46812	10.4991
3.4658	10.5439
3.46348	10.5982
3.46117	10.5539
3.45886	10.4829
3.45656	10.5141
3.45425	10.5199
3.45195	10.4907
3.44966	10.4882
3.44736	10.5612
3.44507	10.5737
3.44279	10.5377
3.4405	10.5319
3.43822	10.5137
3.43594	10.4284
3.43367	10.3636
3.43139	10.5297
3.42912	10.6489
3.42686	10.5707
3.42459	10.5501
3.42233	10.6684
3.42007	10.698
3.41782	10.5234
3.41557	10.5151
3.41332	10.5409
3.41108	10.4506
3.40883	10.4423
3.40659	10.5714
3.40435	10.5781
3.40212	10.5287
3.39989	10.5551
3.39766	10.588
3.39544	10.5268
3.39322	10.3534
3.391	10.431
3.38878	10.448
3.38657	10.4359
3.38436	10.4725
3.38215	10.4966
3.37994	10.5188
3.37774	10.5461
3.37554	10.4137
3.37335	10.4248
3.37115	10.5365
3.36896	10.4801
3.36678	10.4718
3.36459	10.4815
3.36241	10.4283
3.36023	10.3916
3.35805	10.3633
3.35588	10.2864
3.35371	10.3488
3.35154	10.4272
3.34938	10.3662
3.34721	10.4556
3.34505	10.5179
3.3429	10.3696
3.34074	10.2836
3.33859	10.2776
3.33644	10.3235
3.3343	10.369
3.33215	10.3936
3.33001	10.371
3.32788	10.3256
3.32574	10.2993
3.32361	10.378
3.32148	10.4209
3.31936	10.3122
3.31723	10.3632
3.31511	10.4072
3.31299	10.4519
3.31088	10.4378
3.30876	10.4235
3.30665	10.386
3.30455	10.3313
3.30244	10.2926
3.30034	10.3961
3.29824	10.4644
3.29614	10.3096
3.29405	10.2576
3.29196	10.3061
3.28987	10.2687
3.28778	10.2453
3.2857	10.3767
3.28362	10.4492
3.28154	10.4563
3.27946	10.3803
3.27739	10.3274
3.27532	10.3003
3.27325	10.2441
3.27119	10.2392
3.26913	10.2628
3.26707	10.2938
3.26501	10.3209
3.26295	10.3737
3.2609	10.3637
3.25885	10.2897
3.2568	10.2068
3.25476	10.2447
3.25272	10.2115
3.25068	10.2527
3.24864	10.3318
3.24661	10.3152
3.24458	10.3321
3.24255	10.3091
3.24052	10.3097
3.2385	10.353
3.23648	10.2521
3.23446	10.2445
3.23244	10.2888
3.23043	10.2176
3.22841	10.1534
3.2264	10.1108
3.2244	10.1469
3.22239	10.2096
3.22039	10.3403
3.21839	10.4431
3.2164	10.3737
3.2144	10.2846
3.21241	10.2055
3.21042	10.1715
3.20844	10.252
3.20645	10.2306
3.20447	10.1686
3.20249	10.169
3.20051	10.1575
3.19854	10.1504
3.19657	10.1561
3.1946	10.2091
3.19263	10.2483
3.19067	10.1695
3.1887	10.0291
3.18674	10.0825
3.18479	10.1688
3.18283	10.222
3.18088	10.3006
3.17893	10.2319
3.17698	10.0609
3.17504	10.0422
3.17309	10.115
3.17115	10.0731
3.16921	10.0579
3.16728	10.0944
3.16534	10.0646
3.16341	9.99765
3.16148	9.96875
3.15956	10.102
3.15763	10.1974
3.15571	10.2453
3.15379	10.1679
3.15187	10.0816
3.14996	10.1411
3.14805	10.1301
3.14614	10.0366
3.14423	9.93429
3.14232	9.86144
3.14042	9.98596
3.13852	10.15
3.13662	10.1288
3.13472	10.0576
3.13283	10.0595
3.13094	10.0771
3.12905	10.0534
3.12716	10.003
3.12528	9.91998
3.12339	9.95914
3.12151	9.96419
3.11964	10.0451
3.11776	10.0827
3.11589	9.9783
3.11401	10.0044
3.11214	10.0532
3.11028	10.0325
3.10841	9.98052
3.10655	9.92471
3.10469	9.8489
3.10283	9.87929
3.10098	9.9231
3.09912	9.94097
3.09727	9.92992
3.09542	9.95209
3.09358	9.96843
3.09173	10.0117
3.08989	10.0527
3.08805	9.95267
3.08621	9.89626
3.08437	9.96593
3.08254	9.95921
3.08071	9.87356
3.07888	9.82092
3.07705	9.85627
3.07523	9.8973
3.0734	9.86368
3.07158	9.87935
3.06977	9.93137
3.06795	9.92538
3.06613	9.84623
3.06432	9.89739
3.06251	9.99683
3.0607	9.98529
3.0589	10.0089
3.0571	10.0507
3.05529	9.99598
3.05349	9.86995
3.0517	9.75978
3.0499	9.75736
3.04811	9.71866
3.04632	9.68408
3.04453	9.77305
3.04274	9.80846
3.04096	9.83451
3.03918	9.89696
3.0374	9.95985
3.03562	9.97712
3.03384	9.93943
3.03207	9.84845
3.03029	9.86512
3.02852	9.89342
3.02676	9.80156
3.02499	9.80552
3.02323	9.73206
3.02146	9.59162
3.0197	9.66339
3.01795	9.76117
3.01619	9.69296
3.01444	9.74247
3.01269	9.79988
3.01094	9.72427
3.00919	9.75815
3.00744	9.81291
3.0057	9.80171
3.00396	9.78295
3.00222	9.82986
3.00048	9.80396
2.99875	9.78422
2.99701	9.73191
2.99528	9.79706
2.99355	9.77046
2.99183	9.6868
2.9901	9.71503
2.98838	9.63402
2.98666	9.53005
2.98494	9.59494
2.98322	9.71303
2.9815	9.72401
2.97979	9.6756
2.97808	9.65695
2.97637	9.70214
2.97466	9.60337
2.97295	9.59643
2.97125	9.77021
2.96955	9.71407
2.96785	9.65248
2.96615	9.60867
2.96446	9.68879
2.96276	9.6897
2.96107	9.59863
2.95938	9.60576
2.95769	9.68833
2.95601	9.69689
2.95432	9.65645
2.95264	9.61515
2.95096	9.67272
2.94928	9.66188
2.9476	9.67529
2.94593	9.65397
2.94425	9.60701
2.94258	9.56985
2.94092	9.63481
2.93925	9.61331
2.93758	9.54316
2.93592	9.54052
2.93426	9.63098
2.9326	9.63417
2.93094	9.57491
2.92928	9.54199
2.92763	9.71085
2.92598	9.71235
2.92433	9.58649
2.92268	9.6492
2.92103	9.61966
2.91939	9.52895
2.91775	9.5526
2.9161	9.67327
2.91447	9.56593
2.91283	9.46503
2.91119	9.65703
2.90956	9.76479
2.90793	9.84777
2.9063	9.73122
2.90467	9.67375
2.90304	9.64445
2.90142	9.6058
2.89979	9.63455
2.89817	9.58369
2.89656	9.57049
2.89494	9.56222
2.89332	9.51277
2.89171	9.42596
2.8901	9.45854
2.88849	9.48493
2.88688	9.45157
2.88527	9.54592
2.88367	9.63375
2.88206	9.6558
2.88046	9.58694
2.87886	9.49653
2.87727	9.41259
2.87567	9.47623
2.87408	9.70475
2.87248	9.77979
2.87089	9.69304
2.8693	9.61651
2.86772	9.55762
2.86613	9.55024
2.86455	9.51033
2.86297	9.4697
2.86139	9.5422
2.85981	9.57585
2.85823	9.38803
2.85666	9.42421
2.85508	9.3934
2.85351	9.41434
2.85194	9.39128
2.85038	9.30505
2.84881	9.4496
2.84724	9.55459
2.84568	9.5951
2.84412	9.52246
2.84256	9.50587
2.841	9.58588
2.83945	9.63434
2.83789	9.60442
2.83634	9.60071
2.83479	9.39997
2.83324	9.28824
2.83169	9.41906
2.83015	9.62672
2.82861	9.69133
2.82706	9.58673
2.82552	9.46884
2.82398	9.41495
2.82245	9.49383
2.82091	9.45633
2.81938	9.49917
2.81784	9.5817
2.81631	9.67482
2.81479	9.62164
2.81326	9.48544
2.81173	9.45316
2.81021	9.38439
2.80869	9.59314
2.80716	9.66084
2.80565	9.53092
2.80413	9.49386
2.80261	9.54174
2.8011	9.54237
2.79959	9.45447
2.79808	9.50598
2.79657	9.52168
2.79506	9.49232
2.79355	9.3689
2.79205	9.39621
2.79055	9.60158
2.78904	9.57997
2.78754	9.51063
2.78605	9.34931
2.78455	9.37205
2.78306	9.50772
2.78156	9.41603
2.78007	9.40573
2.77858	9.4352
2.77709	9.39581
2.77561	9.31116
2.77412	9.42248
2.77264	9.63029
2.77116	9.54153
2.76968	9.45169
2.7682	9.50416
2.76672	9.54088
2.76524	9.53263
2.76377	9.38174
2.7623	9.30459
2.76083	9.31726
2.75936	9.41884
2.75789	9.44726
2.75642	9.45629
2.75496	9.43716
2.7535	9.36663
2.75203	9.31052
2.75057	9.13991
2.74912	9.09039
2.74766	9.26689
2.7462	9.37507
2.74475	9.50167
2.7433	9.54536
2.74185	9.52584
2.7404	9.4749
2.73895	9.41478
2.7375	9.27703
2.73606	9.29543
2.73462	9.31082
2.73318	9.22846
2.73174	9.36146
2.7303	9.4227
2.72886	9.41651
2.72742	9.43984
2.72599	9.54439
2.72456	9.63962
2.72313	9.54735
2.7217	9.53851
2.72027	9.58258
2.71884	9.60552
2.71742	9.53858
2.71599	9.467
2.71457	9.64627
2.71315	9.81304
2.71173	9.80108
2.71032	9.65862
2.7089	9.583
2.70748	9.50513
2.70607	9.45674
2.70466	9.62188
2.70325	9.82293
2.70184	9.9185
2.70043	9.7708
2.69903	9.59989
2.69762	9.65766
2.69622	9.7466
2.69482	9.81457
2.69342	9.83523
2.69202	9.76113
2.69062	9.72337
2.68923	9.55064
2.68783	9.53633
2.68644	9.64555
2.68505	9.62008
2.68366	9.57559
2.68227	9.69527
2.68089	9.78744
2.6795	9.91632
2.67812	9.91141
2.67673	9.82359
2.67535	9.79887
2.67397	9.74178
2.6726	9.6443
2.67122	9.79419
2.66984	9.91328
2.66847	9.83356
2.6671	9.95935
2.66572	10.1092
2.66435	9.9165
2.66299	9.74933
2.66162	9.66196
2.66025	9.61546
2.65889	9.63306
2.65753	9.63947
2.65616	9.72889
2.65481	9.774
2.65345	9.63819
2.65209	9.51613
2.65073	9.55837
2.64938	9.61034
2.64803	9.62624
2.64667	9.64546
2.64532	9.60983
2.64397	9.61264
2.64263	9.63501
2.64128	9.61088
2.63994	9.5789
2.63859	9.60223
2.63725	9.65923
2.63591	9.68525
2.63457	9.7306
2.63323	9.76197
2.6319	9.72777
2.63056	9.60498
2.62923	9.60182
2.62789	9.70119
2.62656	9.69482
2.62523	9.72457
2.6239	9.72934
2.62258	9.61852
2.62125	9.64722
2.61993	9.71664
2.6186	9.54827
2.61728	9.42966
2.61596	9.45781
2.61464	9.47406
2.61332	9.5477
2.61201	9.69067
2.61069	9.75287
2.60938	9.55052
2.60807	9.48616
2.60675	9.64478
2.60544	9.70817
2.60414	9.53639
2.60283	9.79301
2.60152	9.82919
2.60022	9.54346
2.59891	9.40488
2.59761	9.50297
2.59631	9.75307
2.59501	9.87738
2.59371	9.62205
2.59242	9.51085
2.59112	9.54923
2.58983	9.62468
2.58853	9.66927
2.58724	9.61055
2.58595	9.60759
2.58466	9.61057
2.58338	9.55811
2.58209	9.66114
2.5808	9.82841
2.57952	9.77285
2.57824	9.62784
2.57695	9.60685
2.57567	9.52047
2.5744	9.45236
2.57312	9.51474
2.57184	9.53824
2.57057	9.56995
2.56929	9.55318
2.56802	9.45841
2.56675	9.58393
2.56548	9.64412
2.56421	9.52878
2.56294	9.49244
2.56168	9.3985
2.56041	9.37931
2.55915	9.52338
2.55789	9.64162
2.55662	9.60625
2.55536	9.5167
2.5541	9.46325
2.55285	9.34109
2.55159	9.29392
2.55034	9.25124
2.54908	9.31495
2.54783	9.42239
2.54658	9.48104
2.54533	9.52146
2.54408	9.60198
2.54283	9.42893
2.54159	9.36287
2.54034	9.42169
2.5391	9.47699
2.53785	9.58383
2.53661	9.64108
2.53537	9.56627
2.53413	9.45683
2.53289	9.56091
2.53166	9.49583
2.53042	9.25051
2.52919	9.3357
2.52795	9.46414
2.52672	9.43292
2.52549	9.4418
2.52426	9.56631
2.52303	9.53592
2.52181	9.48639
2.52058	9.56664
2.51936	9.53638
2.51813	9.36012
2.51691	9.40255
2.51569	9.48147
2.51447	9.45002
2.51325	9.414
2.51203	9.43082
2.51082	9.40295
2.5096	9.32867
2.50839	9.41238
2.50717	9.4935
2.50596	9.34894
2.50475	9.33948
2.50354	9.39024
2.50233	9.3257
2.50113	9.33339
2.49992	9.34175
2.49872	9.28964
2.49751	9.25019
2.49631	9.43076
2.49511	9.62914
2.49391	9.52785
2.49271	9.35049
2.49151	9.43828
2.49031	9.56786
2.48912	9.50182
2.48792	9.46527
2.48673	9.42398
2.48554	9.20525
2.48435	9.35549
2.48316	9.56182
2.48197	9.61861
2.48078	9.49583
2.4796	9.38587
2.47841	9.42149
2.47723	9.43097
2.47604	9.34501
2.47486	9.34253
2.47368	9.45951
2.4725	9.46972
2.47132	9.26883
2.47014	9.29488
2.46897	9.46778
2.46779	9.48358
2.46662	9.42154
2.46545	9.4116
2.46427	9.32786
2.4631	9.17767
2.46193	9.20397
2.46077	9.28917
2.4596	9.40296
2.45843	9.48775
2.45727	9.47973
2.4561	9.36861
2.45494	9.3666
2.45378	9.50398
2.45262	9.58469
2.45146	9.58204
2.4503	9.44943
2.44914	9.33753
2.44799	9.45997
2.44683	9.48341
2.44568	9.39664
2.44452	9.3519
2.44337	9.31042
2.44222	9.39543
2.44107	9.47887
2.43992	9.37777
2.43877	9.34386
2.43763	9.30137
2.43648	9.14029
2.43534	9.10142
2.43419	9.20844
2.43305	9.24386
2.43191	9.27462
2.43077	9.32771
2.42963	9.53117
2.42849	9.68801
2.42736	9.58432
2.42622	9.43778
2.42509	9.39534
2.42395	9.44384
2.42282	9.31617
2.42169	9.22475
2.42056	9.25681
2.41943	9.28848
2.4183	9.304
2.41717	9.32719
2.41605	9.32028
2.41492	9.20633
2.4138	9.19174
2.41267	9.33566
2.41155	9.34881
2.41043	9.33941
2.40931	9.31272
2.40819	9.3321
2.40707	9.30474
2.40595	9.35083
2.40484	9.23839
2.40372	9.34425
2.40261	9.51371
2.4015	9.40159
2.40039	9.25398
2.39928	9.26516
2.39817	9.34116
2.39706	9.23501
2.39595	9.24729
2.39484	9.34245
2.39374	9.26512
2.39263	9.16388
2.39153	9.24045
2.39043	9.26591
2.38932	9.21229
2.38822	9.19479
2.38712	9.23806
2.38603	9.33764
2.38493	9.42229
2.38383	9.17908
2.38274	9.11509
2.38164	9.25361
2.38055	9.35437
2.37946	9.28653
2.37836	9.32895
2.37727	9.40238
2.37618	9.2531
2.3751	9.16522
2.37401	9.17438
2.37292	9.22085
2.37184	9.21657
2.37075	9.22809
2.36967	9.36968
2.36859	9.38804
2.3675	9.30044
2.36642	9.22047
2.36534	9.28679
2.36427	9.3369
2.36319	9.34746
2.36211	9.3909
2.36104	9.40268
2.35996	9.34715
2.35889	9.24967
2.35781	9.20802
2.35674	9.2824
2.35567	9.21141
2.3546	9.13298
2.35353	9.27212
2.35247	9.25198
2.3514	9.09739
2.35033	9.13238
2.34927	9.31059
2.3482	9.38237
2.34714	9.29451
2.34608	9.203
2.34502	9.28521
2.34396	9.3927
2.3429	9.38652
2.34184	9.3161
2.34078	9.14091
2.33973	9.05586
2.33867	9.11412
2.33762	9.19889
2.33656	9.17678
2.33551	9.21373
2.33446	9.15453
2.33341	8.95426
2.33236	9.03617
2.33131	9.26477
2.33026	9.3635
2.32922	9.3873
2.32817	9.34687
2.32712	9.24755
2.32608	9.24728
2.32504	9.25589
2.324	9.27684
2.32295	9.34202
2.32191	9.27267
2.32087	9.18434
2.31984	9.13111
2.3188	9.12722
2.31776	9.16401
2.31673	9.04686
2.31569	9.15611
2.31466	9.26081
2.31362	9.14685
2.31259	9.13032
2.31156	9.0276
2.31053	9.1412
2.3095	9.35023
2.30847	9.50707
2.30745	9.43753
2.30642	9.30218
2.3054	9.19668
2.30437	9.0409
2.30335	9.2024
2.30232	9.22859
2.3013	9.03694
2.30028	8.92935
2.29926	9.01538
2.29824	9.26899
2.29722	9.30023
2.29621	9.30256
2.29519	9.40147
2.29417	9.26645
2.29316	9.24057
2.29215	9.23875
2.29113	9.12778
2.29012	9.05555
2.28911	8.99663
2.2881	8.88751
2.28709	8.83351
2.28608	8.92961
2.28507	9.06071
2.28407	9.26216
2.28306	9.32995
2.28206	9.13113
2.28105	8.92872
2.28005	9.02055
2.27905	9.09789
2.27805	9.16279
2.27705	9.2444
2.27605	9.20325
2.27505	8.99857
2.27405	8.89833
2.27305	8.99297
2.27206	9.09939
2.27106	9.27121
2.27007	9.2035
2.26907	9.17076
2.26808	9.19726
2.26709	9.28021
2.2661	9.14853
2.26511	9.06261
2.26412	9.21747
2.26313	9.02746
2.26214	8.91806
2.26116	9.07868
2.26017	8.99461
2.25919	8.87443
2.2582	8.92876
2.25722	8.96076
2.25624	9.02712
2.25526	9.06068
2.25428	9.15109
2.2533	9.15523
2.25232	9.14892
2.25134	9.05566
2.25036	9.0332
2.24939	9.0142
2.24841	9.01203
2.24744	8.94353
2.24646	8.98686
2.24549	9.07812
2.24452	9.18936
2.24355	9.11804
2.24257	9.05693
2.24161	9.05407
2.24064	9.02758
2.23967	9.2205
2.2387	9.24754
2.23774	9.08234
2.23677	8.92878
2.23581	8.93419
2.23484	8.90668
2.23388	8.79513
2.23292	8.95988
2.23196	9.12627
2.231	9.1535
2.23004	9.08831
2.22908	8.89369
2.22812	8.96662
2.22716	9.13763
2.22621	9.09212
2.22525	8.99252
2.2243	9.10769
2.22334	9.14855
2.22239	9.13922
2.22144	9.11707
2.22049	8.96053
2.21953	8.93348
2.21859	9.119
2.21764	9.14849
2.21669	8.95689
2.21574	9.10637
2.21479	9.23955
2.21385	9.11741
2.2129	9.04346
2.21196	9.02165
2.21102	9.09185
2.21007	9.13351
2.20913	9.01924
2.20819	8.9458
2.20725	9.06638
2.20631	8.98811
2.20537	8.94895
2.20444	8.9438
2.2035	8.88513
2.20256	8.93423
2.20163	8.99993
2.20069	8.98702
2.19976	8.93027
2.19883	8.93846
2.19789	8.85631
2.19696	8.93446
2.19603	9.01051
2.1951	8.94853
2.19417	8.94174
2.19325	9.0448
2.19232	9.07501
2.19139	8.97611
2.19047	8.93113
2.18954	8.91471
2.18862	8.81516
2.18769	8.76784
2.18677	9.04936
2.18585	9.23233
2.18493	9.07904
2.18401	9.06396
2.18309	9.15803
2.18217	9.1304
2.18125	8.93705
2.18033	8.85388
2.17942	8.90584
2.1785	8.9542
2.17759	9.09692
2.17667	9.20341
2.17576	9.1635
2.17485	8.95433
2.17393	8.98356
2.17302	8.95798
2.17211	8.74733
2.1712	8.8507
2.17029	9.00317
2.16939	8.96777
2.16848	8.84333
2.16757	8.68405
2.16667	8.83543
2.16576	9.13486
2.16486	9.23507
2.16395	9.35869
2.16305	9.27413
2.16215	8.99576
2.16125	8.94452
2.16035	8.72199
2.15945	8.78372
2.15855	8.93374
2.15765	8.91455
2.15675	8.80071
2.15586	8.74951
2.15496	8.73252
2.15406	8.79994
2.15317	8.88463
2.15228	8.94686
2.15138	9.0258
2.15049	8.93505
2.1496	8.69656
2.14871	8.82634
2.14782	8.83646
2.14693	8.79298
2.14604	9.00678
2.14515	9.00117
2.14427	8.88962
2.14338	8.77202
2.14249	8.92826
2.14161	9.0909
2.14072	9.01796
2.13984	8.9506
2.13896	8.8019
2.13808	8.76872
2.13719	8.80191
2.13631	8.74722
2.13543	8.83168
2.13455	8.82369
2.13368	8.66784
2.1328	8.83578
2.13192	8.96256
2.13105	8.91602
2.13017	8.93119
2.1293	8.78646
2.12842	8.77714
2.12755	9.04332
2.12668	8.81204
2.1258	8.68031
2.12493	8.8734
2.12406	8.90426
2.12319	8.84507
2.12232	8.76557
2.12145	8.7658
2.12059	8.64513
2.11972	8.87096
2.11885	9.12386
2.11799	8.85951
2.11712	8.74682
2.11626	8.85232
2.1154	8.95644
2.11453	8.9354
2.11367	8.61894
2.11281	8.54528
2.11195	8.68816
2.11109	8.69977
2.11023	8.5799
2.10937	8.72134
2.10851	8.84467
2.10766	8.95422
2.1068	9.00959
2.10594	8.94106
2.10509	8.87405
2.10423	8.77159
2.10338	8.65415
2.10253	8.65661
2.10168	8.80032
2.10082	8.93073
2.09997	8.75979
2.09912	8.67418
2.09827	8.71961
2.09742	8.85962
2.09658	9.03582
2.09573	8.99747
2.09488	8.9342
2.09404	8.89931
2.09319	9.0105
2.09235	9.07935
2.0915	8.87764
2.09066	8.85115
2.08982	8.96039
2.08897	8.8407
2.08813	8.54497
2.08729	8.54728
2.08645	8.59007
2.08561	8.61196
2.08477	8.72044
2.08394	8.57431
2.0831	8.61295
2.08226	8.85706
2.08143	9.0179
2.08059	9.00412
2.07976	8.68091
2.07892	8.7547
2.07809	8.84581
2.07726	8.75131
2.07643	9.07145
2.07559	8.98739
2.07476	9.00938
2.07393	8.98439
2.0731	8.62807
2.07228	9.10637
2.07145	9.83519
2.07062	8.99986
2.06979	8.2499
2.06897	8.53376
2.06814	8.59079
2.06732	7.96245
2.06649	8.23711
2.06567	8.67352
2.06485	8.87755
2.06403	9.0785
2.0632	9.08316
2.06238	8.92661
2.06156	8.49181
2.06074	8.0885
2.05993	8.50518
2.05911	8.82572
2.05829	8.73951
2.05747	8.71278
2.05666	8.55908
2.05584	8.75474
2.05503	8.89378
2.05421	8.62238
2.0534	8.6583
2.05259	8.73409
2.05177	8.81431
2.05096	8.99552
2.05015	8.98531
2.04934	8.7346
2.04853	8.56907
2.04772	8.67926
2.04691	8.92984
2.04611	8.94831
2.0453	8.97817
2.04449	8.87817
2.04369	8.81131
2.04288	8.8873
2.04208	8.72442
2.04127	8.68415
2.04047	8.78683
2.03967	8.77697
2.03886	8.69391
2.03806	8.85647
2.03726	8.77812
2.03646	8.70357
2.03566	8.79398
2.03486	8.52951
2.03407	8.54277
2.03327	8.70739
2.03247	8.71974
2.03167	8.67696
2.03088	8.58977
2.03008	8.44805
2.02929	8.39251
2.0285	8.3068
2.0277	8.3049
2.02691	8.46488
2.02612	8.58787
2.02533	8.50412
2.02453	8.47589
2.02374	8.54598
2.02295	8.55891
2.02217	8.59018
2.02138	8.6321
2.02059	8.92112
2.0198	9.12456
2.01902	8.89
2.01823	8.65004
2.01744	8.62212
2.01666	8.80768
2.01588	8.66637
2.01509	8.57252
2.01431	8.6299
2.01353	8.71073
2.01275	8.68352
2.01196	8.82986
2.01118	8.80987
2.0104	8.62704
2.00963	8.54975
2.00885	8.5741
2.00807	8.57997
2.00729	8.68527
2.00651	8.71049
2.00574	8.7326
2.00496	8.65456
2.00419	8.63213
2.00341	8.78467
2.00264	8.74757
2.00187	8.65333
2.00109	8.92978
2.00032	8.92227
