Name: Argillaceous Limestone
Type: Rock
Class: Sedimentary
Subclass:  Limestone 
Particle Size: Solid surface
Sample No.: Ward69.txt
Owner: JPL
Wavelength range:  IR
Origin: Ward's Collection of American Rocks.  Sample locality - Trenton Falls, Oneida County, New York.
Collected by:  Ward's Natural Science
Description: A black compact rock containing a few brachiopod shells and
other fossils.
Geologic age - Ordovician.



Measurement: Hemispherical reflectance
First Column: X
Second Column: Y
X Units: Wavelength (micrometers)
Y Units: Reflectance (percent)
First X Value: 15.3871
Last X Value: 1.9998
Number of X Values: 2257
Additional information: None

15.3871   3.71534
15.3416   3.42139
15.2964   3.47205
15.2514   3.49294
15.2066   3.67105
15.1622   3.71096
15.1180   3.57578
15.0740   3.50075
15.0303   3.63575
14.9869   3.74348
14.9437   3.95414
14.9008   4.01887
14.8581   3.84013
14.8156   3.84794
14.7734   3.85822
14.7314   3.98438
14.6897   4.24574
14.6482   4.06761
14.6069   4.08473
14.5659   3.94591
14.5251   3.74237
14.4845   3.69467
14.4442   3.74342
14.4041   3.87317
14.3642   3.83639
14.3245   3.65727
14.2850   3.70229
14.2458   4.00711
14.2068   4.03019
14.1679   3.70391
14.1293   3.61898
14.0909   3.68452
14.0528   3.81754
14.0148   3.11058
13.9770   2.06157
13.9394   2.08238
13.9021   2.46315
13.8649   2.59036
13.8279   2.91293
13.7911   3.19755
13.7546   3.38132
13.7182   3.50347
13.6820   3.59434
13.6460   3.48584
13.6101   3.55338
13.5745   3.65900
13.5391   3.75233
13.5038   3.94010
13.4687   4.17538
13.4339   4.18983
13.3991   4.15294
13.3646   4.18220
13.3302   4.09739
13.2961   4.02491
13.2621   4.16168
13.2282   4.33638
13.1946   4.32084
13.1611   4.22051
13.1278   4.18677
13.0946   4.17413
13.0616   4.10907
13.0288   4.18255
12.9962   4.22166
12.9637   4.17384
12.9313   4.24965
12.8992   4.07497
12.8672   4.04308
12.8353   4.14276
12.8036   4.23806
12.7721   4.33330
12.7407   4.25582
12.7095   4.12315
12.6784   4.04513
12.6475   4.06513
12.6167   4.25875
12.5861   4.26611
12.5556   4.21581
12.5253   4.49914
12.4951   4.54728
12.4651   4.39484
12.4352   4.47022
12.4054   4.58098
12.3758   4.53132
12.3463   4.38124
12.3170   4.26278
12.2878   4.28623
12.2588   4.43077
12.2299   4.49177
12.2011   4.47403
12.1725   4.51655
12.1439   4.65064
12.1156   4.56535
12.0873   4.61459
12.0592   4.69919
12.0312   4.75302
12.0034   4.74314
11.9757   4.68579
11.9481   4.76354
11.9206   5.01587
11.8933   5.11457
11.8661   5.07538
11.8390   4.78204
11.8120   4.47465
11.7852   4.36189
11.7584   4.58998
11.7318   4.89124
11.7053   5.13122
11.6790   5.15085
11.6527   5.10201
11.6266   5.34157
11.6006   5.67096
11.5747   5.93339
11.5489   6.36936
11.5233   7.20305
11.4977   8.75735
11.4723  10.75430
11.4469  12.12650
11.4217  12.96130
11.3966  13.77110
11.3716  14.83040
11.3468  15.89010
11.3220  17.06130
11.2973  18.45060
11.2728  18.78840
11.2483  16.27400
11.2240  12.56610
11.1997  10.23520
11.1756   9.11866
11.1515   8.63893
11.1276   8.34895
11.1038   7.96709
11.0801   7.61582
11.0564   7.28661
11.0329   7.00778
11.0095   6.77083
10.9862   6.62319
10.9629   6.54214
10.9398   6.38324
10.9168   6.23813
10.8938   6.17652
10.8710   6.18604
10.8483   6.09459
10.8256   5.92490
10.8031   5.85166
10.7806   5.68078
10.7582   5.43132
10.7360   5.43779
10.7138   5.57868
10.6917   5.58471
10.6697   5.49318
10.6478   5.38282
10.6260   5.46286
10.6042   5.52483
10.5826   5.53195
10.5610   5.53645
10.5396   5.44770
10.5182   5.48600
10.4969   5.61471
10.4757   5.77769
10.4546   5.87924
10.4335   5.94824
10.4126   5.90155
10.3917   5.85564
10.3709   5.92497
10.3502   5.93000
10.3296   5.88669
10.3091   5.90213
10.2886   5.82642
10.2683   5.79762
10.2480   5.95057
10.2277   6.07023
10.2076   5.95374
10.1876   5.87708
10.1676   6.04515
10.1477   6.13798
10.1279   6.00446
10.1081   6.02574
10.0885   6.00245
10.0689   5.95194
10.0494   6.04712
10.0299   6.17749
10.0106   6.26147
 9.9913   6.05667
 9.9720   6.06385
 9.9529   6.25212
 9.9338   6.21455
 9.9148   6.23665
 9.8959   6.28715
 9.8771   6.22206
 9.8583   6.15087
 9.8396   6.08310
 9.8210   6.17645
 9.8024   6.37397
 9.7839   6.41387
 9.7655   6.41575
 9.7471   6.47470
 9.7288   6.44979
 9.7106   6.42984
 9.6925   6.47973
 9.6744   6.54177
 9.6564   6.52896
 9.6384   6.45696
 9.6205   6.55189
 9.6027   6.56694
 9.5850   6.42278
 9.5673   6.05141
 9.5497   6.06060
 9.5321   6.29012
 9.5146   6.21922
 9.4972   6.20231
 9.4798   6.11198
 9.4625   6.03545
 9.4453   5.96861
 9.4281   5.84276
 9.4110   5.83314
 9.3940   5.88121
 9.3770   5.98385
 9.3600   6.00659
 9.3432   6.06068
 9.3264   6.15760
 9.3096   6.22212
 9.2930   6.13933
 9.2763   6.06982
 9.2598   6.05924
 9.2432   5.78758
 9.2268   5.76913
 9.2104   5.88894
 9.1941   6.02199
 9.1778   6.12709
 9.1616   6.14805
 9.1454   6.21723
 9.1293   6.37070
 9.1133   6.28613
 9.0973   6.23055
 9.0814   6.23522
 9.0655   6.30678
 9.0497   6.46890
 9.0339   6.38207
 9.0182   6.22017
 9.0025   6.20237
 8.9870   6.27947
 8.9714   6.37932
 8.9559   6.42690
 8.9405   6.47067
 8.9251   6.39743
 8.9097   6.52990
 8.8945   6.50680
 8.8792   6.45053
 8.8641   6.54582
 8.8489   6.51046
 8.8338   6.53052
 8.8188   6.55697
 8.8039   6.52050
 8.7889   6.48967
 8.7741   6.38945
 8.7592   6.29434
 8.7445   6.29562
 8.7297   6.25610
 8.7151   6.09452
 8.7005   6.00145
 8.6859   6.06635
 8.6714   6.08133
 8.6569   6.04965
 8.6425   5.77552
 8.6281   5.57775
 8.6137   5.58518
 8.5994   5.66855
 8.5852   5.68512
 8.5710   5.74344
 8.5569   5.78204
 8.5428   5.89520
 8.5287   5.79329
 8.5147   5.60154
 8.5008   5.59941
 8.4869   5.64200
 8.4730   5.64243
 8.4592   5.66436
 8.4454   5.74460
 8.4316   5.78392
 8.4180   5.85878
 8.4043   6.02929
 8.3907   6.22041
 8.3772   6.24270
 8.3637   6.18481
 8.3502   6.21715
 8.3368   6.28941
 8.3234   6.38107
 8.3100   6.37596
 8.2967   6.44058
 8.2835   6.57512
 8.2703   6.65330
 8.2571   6.66148
 8.2440   6.77842
 8.2309   6.82561
 8.2179   6.68462
 8.2049   6.58200
 8.1919   6.65307
 8.1790   6.78440
 8.1661   6.77993
 8.1532   6.68897
 8.1404   6.60946
 8.1277   6.59494
 8.1150   6.76608
 8.1023   6.67491
 8.0897   6.65517
 8.0770   6.58539
 8.0645   6.47707
 8.0520   6.53171
 8.0395   6.48908
 8.0270   6.52956
 8.0146   6.72361
 8.0023   6.75540
 7.9899   6.66718
 7.9776   6.60155
 7.9654   6.69529
 7.9532   6.78111
 7.9410   6.70169
 7.9288   6.53370
 7.9167   6.44922
 7.9047   6.52926
 7.8926   6.60691
 7.8807   6.61614
 7.8687   6.66859
 7.8568   6.69070
 7.8449   6.77056
 7.8330   6.84473
 7.8212   6.79022
 7.8094   6.75236
 7.7977   6.81133
 7.7860   6.74262
 7.7743   6.68110
 7.7627   6.76116
 7.7511   6.84630
 7.7395   6.85696
 7.7280   6.84206
 7.7165   6.81363
 7.7050   6.82704
 7.6936   6.87175
 7.6822   6.82936
 7.6708   6.72183
 7.6595   6.70174
 7.6482   6.64216
 7.6369   6.71494
 7.6257   6.77297
 7.6145   6.70863
 7.6033   6.75752
 7.5922   6.82372
 7.5811   6.84272
 7.5700   6.84768
 7.5590   6.82181
 7.5480   6.86546
 7.5370   6.89350
 7.5261   6.94150
 7.5152   6.97403
 7.5043   6.94427
 7.4935   7.05085
 7.4826   7.17673
 7.4718   7.22681
 7.4611   7.20603
 7.4504   7.31877
 7.4397   7.45228
 7.4290   7.48043
 7.4184   7.55819
 7.4078   7.68078
 7.3972   7.76188
 7.3867   7.74900
 7.3762   7.84922
 7.3657   8.05318
 7.3553   8.13888
 7.3449   8.22861
 7.3345   8.35259
 7.3241   8.30937
 7.3138   8.28424
 7.3035   8.42860
 7.2932   8.57959
 7.2830   8.66939
 7.2727   8.79425
 7.2626   8.98492
 7.2524   9.14857
 7.2423   9.34557
 7.2322   9.56797
 7.2221   9.77711
 7.2120  10.09740
 7.2020  10.35680
 7.1921  10.66350
 7.1821  11.13640
 7.1722  11.58720
 7.1623  11.88640
 7.1524  12.06590
 7.1425  12.21990
 7.1327  12.57090
 7.1229  13.14660
 7.1131  13.85450
 7.1034  14.41110
 7.0937  14.84630
 7.0840  15.05200
 7.0743  15.13090
 7.0647  15.16200
 7.0551  15.05070
 7.0455  14.94580
 7.0359  14.86260
 7.0264  14.74670
 7.0169  14.66790
 7.0074  14.71620
 6.9979  14.71990
 6.9885  14.68410
 6.9791  14.62940
 6.9697  14.66430
 6.9604  14.75990
 6.9510  14.70110
 6.9417  14.67950
 6.9324  14.66380
 6.9232  14.67530
 6.9140  14.84300
 6.9047  15.02790
 6.8956  15.03920
 6.8864  15.18860
 6.8773  15.37520
 6.8682  15.46350
 6.8591  15.47740
 6.8500  15.52660
 6.8410  15.67470
 6.8320  15.87150
 6.8230  16.04830
 6.8140  16.17170
 6.8051  16.31520
 6.7962  16.53400
 6.7873  16.80810
 6.7784  17.03930
 6.7695  17.32980
 6.7607  17.50290
 6.7519  17.65420
 6.7431  17.93010
 6.7344  18.26850
 6.7256  18.57500
 6.7169  18.84750
 6.7082  19.18580
 6.6996  19.53540
 6.6909  19.86930
 6.6823  20.24330
 6.6737  20.53100
 6.6651  20.85500
 6.6566  21.30720
 6.6480  21.87970
 6.6395  22.47970
 6.6310  22.80130
 6.6226  23.12570
 6.6141  23.60410
 6.6057  24.00750
 6.5973  24.48580
 6.5889  25.07680
 6.5805  25.63590
 6.5722  26.20180
 6.5639  26.52870
 6.5556  26.83220
 6.5473  27.04430
 6.5390  27.17240
 6.5308  27.29170
 6.5226  27.45170
 6.5144  27.41530
 6.5062  27.45710
 6.4981  27.57550
 6.4900  27.59810
 6.4818  27.49810
 6.4737  27.37740
 6.4657  27.06500
 6.4576  26.48080
 6.4496  25.37860
 6.4416  23.81430
 6.4336  21.88390
 6.4256  19.88720
 6.4177  18.13310
 6.4097  16.29130
 6.4018  14.64810
 6.3939  13.30630
 6.3860  12.04500
 6.3782  10.98260
 6.3704  10.01760
 6.3625   9.03443
 6.3547   8.21223
 6.3470   7.38499
 6.3392   6.58062
 6.3315   5.91003
 6.3237   5.43124
 6.3160   5.09686
 6.3083   4.76946
 6.3007   4.44545
 6.2930   4.19997
 6.2854   4.04736
 6.2778   3.94413
 6.2702   3.82666
 6.2626   3.67004
 6.2551   3.41198
 6.2476   3.13339
 6.2400   3.01370
 6.2325   2.95071
 6.2251   2.84102
 6.2176   2.75011
 6.2101   2.69928
 6.2027   2.61480
 6.1953   2.57349
 6.1879   2.51073
 6.1805   2.40636
 6.1732   2.27962
 6.1658   2.22696
 6.1585   2.22170
 6.1512   2.13804
 6.1439   2.08430
 6.1367   2.08615
 6.1294   2.11267
 6.1222   2.10113
 6.1149   2.01259
 6.1077   1.96252
 6.1006   1.98583
 6.0934   1.94810
 6.0862   1.89319
 6.0791   1.91759
 6.0720   1.95278
 6.0649   1.88350
 6.0578   1.89913
 6.0507   1.97265
 6.0437   1.96237
 6.0366   1.99100
 6.0296   1.92253
 6.0226   1.87340
 6.0156   1.93223
 6.0087   1.93442
 6.0017   1.90715
 5.9948   1.90956
 5.9878   1.89217
 5.9809   1.88648
 5.9740   1.94887
 5.9672   1.96996
 5.9603   1.94043
 5.9535   1.94295
 5.9466   2.06387
 5.9398   2.08113
 5.9330   1.92744
 5.9262   1.91871
 5.9195   2.02133
 5.9127   1.98794
 5.9060   1.98262
 5.8993   2.14532
 5.8926   2.28003
 5.8859   2.24946
 5.8792   2.21874
 5.8726   2.10020
 5.8659   2.02354
 5.8593   2.08708
 5.8527   2.11659
 5.8461   2.15732
 5.8395   2.16475
 5.8329   2.16691
 5.8264   2.17699
 5.8198   2.09737
 5.8133   2.08384
 5.8068   2.18723
 5.8003   2.23025
 5.7938   2.30453
 5.7874   2.30988
 5.7809   2.22076
 5.7745   2.10373
 5.7680   2.12079
 5.7616   2.19272
 5.7552   2.30040
 5.7489   2.29039
 5.7425   2.26825
 5.7361   2.37278
 5.7298   2.32809
 5.7235   2.32138
 5.7172   2.42070
 5.7109   2.44689
 5.7046   2.36745
 5.6983   2.36750
 5.6921   2.45661
 5.6858   2.53511
 5.6796   2.62608
 5.6734   2.64815
 5.6672   2.65697
 5.6610   2.68452
 5.6548   2.75622
 5.6487   2.84038
 5.6425   2.82058
 5.6364   2.74554
 5.6303   2.73520
 5.6242   2.76992
 5.6181   2.76681
 5.6120   2.67225
 5.6059   2.55589
 5.5999   2.40181
 5.5938   2.27664
 5.5878   2.24190
 5.5818   2.19145
 5.5758   1.99458
 5.5698   1.90909
 5.5638   1.93093
 5.5578   1.89059
 5.5519   1.85966
 5.5460   2.05144
 5.5400   2.22641
 5.5341   2.40501
 5.5282   2.61041
 5.5223   2.85367
 5.5164   3.04645
 5.5106   3.17788
 5.5047   3.30686
 5.4989   3.39889
 5.4931   3.44494
 5.4873   3.47277
 5.4815   3.53109
 5.4757   3.68791
 5.4699   3.88220
 5.4641   3.96984
 5.4584   4.08044
 5.4527   4.16216
 5.4469   4.22254
 5.4412   4.29897
 5.4355   4.37889
 5.4298   4.52499
 5.4241   4.66258
 5.4185   4.67014
 5.4128   4.69924
 5.4072   4.75863
 5.4015   4.76395
 5.3959   4.80390
 5.3903   5.02105
 5.3847   5.13470
 5.3791   5.13965
 5.3735   5.15338
 5.3680   5.13830
 5.3624   5.13608
 5.3569   5.25947
 5.3514   5.42178
 5.3458   5.41383
 5.3403   5.40355
 5.3348   5.44246
 5.3294   5.48303
 5.3239   5.53800
 5.3184   5.70519
 5.3130   5.81720
 5.3075   5.76396
 5.3021   5.80534
 5.2967   5.89573
 5.2913   5.94864
 5.2859   6.01201
 5.2805   6.05964
 5.2751   6.09150
 5.2698   6.12982
 5.2644   6.13267
 5.2591   6.23169
 5.2538   6.35102
 5.2485   6.42515
 5.2431   6.45623
 5.2378   6.41099
 5.2326   6.47246
 5.2273   6.51399
 5.2220   6.62286
 5.2168   6.72290
 5.2115   6.68897
 5.2063   6.70892
 5.2011   6.75486
 5.1959   6.83938
 5.1907   6.92365
 5.1855   6.85705
 5.1803   6.81463
 5.1751   6.91930
 5.1700   7.04607
 5.1648   7.08597
 5.1597   7.10616
 5.1545   7.13188
 5.1494   7.15883
 5.1443   7.13857
 5.1392   7.11806
 5.1341   7.14371
 5.1291   7.12221
 5.1240   7.09520
 5.1189   7.07609
 5.1139   7.00752
 5.1088   6.75641
 5.1038   6.37538
 5.0988   6.28087
 5.0938   6.53579
 5.0888   6.81075
 5.0838   6.99934
 5.0788   7.21584
 5.0738   7.35503
 5.0689   7.39307
 5.0639   7.47959
 5.0590   7.46919
 5.0541   7.35904
 5.0491   7.35478
 5.0442   7.38194
 5.0393   7.47223
 5.0344   7.56578
 5.0296   7.56509
 5.0247   7.47435
 5.0198   7.39392
 5.0150   7.40295
 5.0101   7.40522
 5.0053   7.46734
 5.0004   7.61226
 4.9956   7.67107
 4.9908   7.63052
 4.9860   7.63967
 4.9812   7.68240
 4.9765   7.65917
 4.9717   7.62068
 4.9669   7.70170
 4.9622   7.77740
 4.9574   7.75615
 4.9527   7.71763
 4.9480   7.74551
 4.9432   7.81950
 4.9385   7.88038
 4.9338   7.87398
 4.9291   7.83205
 4.9245   7.80090
 4.9198   7.84025
 4.9151   7.94968
 4.9105   7.92841
 4.9058   7.92844
 4.9012   7.99221
 4.8966   7.99913
 4.8919   8.02755
 4.8873   8.08456
 4.8827   8.09693
 4.8781   8.13813
 4.8736   8.18672
 4.8690   8.15663
 4.8644   8.21536
 4.8599   8.30636
 4.8553   8.31177
 4.8508   8.28222
 4.8462   8.29470
 4.8417   8.34068
 4.8372   8.33729
 4.8327   8.35527
 4.8282   8.41338
 4.8237   8.46497
 4.8192   8.50430
 4.8147   8.41773
 4.8103   8.39661
 4.8058   8.44733
 4.8014   8.42498
 4.7969   8.41062
 4.7925   8.40045
 4.7881   8.29408
 4.7836   8.37623
 4.7792   8.41772
 4.7748   8.33894
 4.7704   8.35959
 4.7660   8.40701
 4.7617   8.34746
 4.7573   8.32742
 4.7530   8.38039
 4.7486   8.26488
 4.7443   8.06799
 4.7399   7.98508
 4.7356   7.95207
 4.7313   7.81100
 4.7270   7.72094
 4.7226   7.53883
 4.7184   7.27209
 4.7141   7.11454
 4.7098   7.03062
 4.7055   6.83285
 4.7012   6.57751
 4.6970   6.41024
 4.6927   6.28938
 4.6885   6.15243
 4.6842   6.17711
 4.6800   6.21989
 4.6758   6.18129
 4.6716   6.10978
 4.6674   6.13384
 4.6632   6.09949
 4.6590   6.09390
 4.6548   6.24713
 4.6506   6.39738
 4.6465   6.47576
 4.6423   6.59910
 4.6382   6.79403
 4.6340   6.97386
 4.6299   7.07726
 4.6258   7.19707
 4.6216   7.40283
 4.6175   7.51094
 4.6134   7.60818
 4.6093   7.71684
 4.6052   7.79205
 4.6011   7.84555
 4.5971   7.81898
 4.5930   7.86172
 4.5889   7.98833
 4.5849   8.04948
 4.5808   8.07752
 4.5768   8.01064
 4.5727   8.01792
 4.5687   8.07739
 4.5647   8.12840
 4.5607   8.13911
 4.5567   8.08842
 4.5526   8.17158
 4.5487   8.29241
 4.5447   8.27396
 4.5407   8.22487
 4.5367   8.20084
 4.5328   8.22471
 4.5288   8.24409
 4.5248   8.26269
 4.5209   8.30069
 4.5170   8.26824
 4.5130   8.21887
 4.5091   8.25831
 4.5052   8.33895
 4.5013   8.39142
 4.4974   8.42142
 4.4935   8.46770
 4.4896   8.61338
 4.4857   8.70285
 4.4818   8.77277
 4.4779   8.88788
 4.4741   9.01099
 4.4702   9.04281
 4.4664   9.07808
 4.4625   9.16558
 4.4587   9.14961
 4.4549   9.14190
 4.4510   9.21505
 4.4472   9.25225
 4.4434   9.34333
 4.4396   9.48355
 4.4358   9.54911
 4.4320   9.62902
 4.4282   9.67672
 4.4245   9.69674
 4.4207   9.74012
 4.4169   9.91795
 4.4132   9.98216
 4.4094   9.91652
 4.4057   9.90347
 4.4019   9.95590
 4.3982  10.05170
 4.3945  10.21230
 4.3907  10.21530
 4.3870  10.08840
 4.3833  10.06160
 4.3796  10.11500
 4.3759  10.16610
 4.3722  10.18270
 4.3685  10.15370
 4.3649  10.09770
 4.3612  10.07850
 4.3575  10.11460
 4.3539  10.08090
 4.3502   9.95321
 4.3466   9.96457
 4.3429  10.01120
 4.3393   9.92754
 4.3357   9.89961
 4.3320   9.95336
 4.3284   9.98805
 4.3248  10.03370
 4.3212  10.06720
 4.3176  10.00630
 4.3140   9.97495
 4.3105   9.92206
 4.3069  10.05380
 4.3033  10.23700
 4.2997  10.18720
 4.2962  10.18560
 4.2926  10.15960
 4.2890  10.15010
 4.2855  10.21400
 4.2820  10.25750
 4.2784  10.32780
 4.2749  10.31030
 4.2714  10.27210
 4.2679  10.22840
 4.2644  10.21090
 4.2609  10.29730
 4.2574  10.28990
 4.2539  10.20790
 4.2504  10.14370
 4.2469  10.13230
 4.2434  10.18010
 4.2400  10.27560
 4.2365  10.31240
 4.2330  10.17040
 4.2296  10.13750
 4.2261  10.22260
 4.2227  10.10750
 4.2193  10.09080
 4.2158  10.10580
 4.2124  10.13270
 4.2090  10.22190
 4.2056  10.14330
 4.2022  10.03040
 4.1988   9.92016
 4.1954   9.84875
 4.1920   9.83768
 4.1886   9.88031
 4.1852   9.91461
 4.1818   9.83192
 4.1785   9.73647
 4.1751   9.77207
 4.1717   9.80619
 4.1684   9.73583
 4.1650   9.63928
 4.1617   9.57409
 4.1584   9.64120
 4.1550   9.62092
 4.1517   9.45610
 4.1484   9.34312
 4.1451   9.31776
 4.1418   9.30330
 4.1384   9.31016
 4.1351   9.19650
 4.1319   9.06486
 4.1286   9.06248
 4.1253   9.02026
 4.1220   8.92242
 4.1187   8.85268
 4.1155   8.79355
 4.1122   8.67583
 4.1089   8.58169
 4.1057   8.48079
 4.1024   8.40586
 4.0992   8.26385
 4.0959   8.19792
 4.0927   8.23317
 4.0895   8.24734
 4.0863   8.04811
 4.0830   7.79934
 4.0798   7.70028
 4.0766   7.63981
 4.0734   7.50879
 4.0702   7.29832
 4.0670   7.24726
 4.0639   7.20040
 4.0607   7.04510
 4.0575   7.10383
 4.0543   6.94962
 4.0511   6.62904
 4.0480   6.40400
 4.0448   6.24762
 4.0417   6.00696
 4.0385   5.68711
 4.0354   5.51830
 4.0323   5.41442
 4.0291   5.20454
 4.0260   5.01557
 4.0229   4.80056
 4.0197   4.80880
 4.0166   4.74679
 4.0135   4.59586
 4.0104   4.44140
 4.0073   4.43271
 4.0042   4.35792
 4.0011   4.19780
 3.9981   4.02199
 3.9950   3.85354
 3.9919   3.75641
 3.9888   3.71050
 3.9857   3.70561
 3.9827   3.70985
 3.9796   3.67792
 3.9766   3.72183
 3.9735   3.79112
 3.9705   3.72651
 3.9675   3.75240
 3.9644   3.69612
 3.9614   3.64747
 3.9584   3.70562
 3.9554   3.73315
 3.9523   3.79698
 3.9493   3.83872
 3.9463   4.02032
 3.9433   4.17839
 3.9403   4.36049
 3.9373   4.51251
 3.9343   4.61920
 3.9314   4.62793
 3.9284   4.68911
 3.9254   4.72552
 3.9224   4.69514
 3.9195   4.78227
 3.9165   4.76015
 3.9136   4.60630
 3.9106   4.54395
 3.9077   4.57900
 3.9047   4.75867
 3.9018   4.70887
 3.8988   4.61286
 3.8959   4.78015
 3.8930   4.86826
 3.8901   4.76146
 3.8872   4.75127
 3.8842   4.82992
 3.8813   4.84371
 3.8784   4.81838
 3.8755   4.78742
 3.8726   4.88310
 3.8697   4.95413
 3.8669   4.98316
 3.8640   4.97084
 3.8611   4.93075
 3.8582   4.83575
 3.8554   4.92153
 3.8525   5.14006
 3.8496   5.14555
 3.8468   5.01456
 3.8439   5.05243
 3.8411   5.13200
 3.8382   5.12029
 3.8354   5.32611
 3.8326   5.41153
 3.8297   5.39356
 3.8269   5.45922
 3.8241   5.62443
 3.8213   5.77663
 3.8185   5.84420
 3.8157   5.99574
 3.8128   6.15526
 3.8100   6.28579
 3.8072   6.50344
 3.8045   6.80928
 3.8017   7.11769
 3.7989   7.25182
 3.7961   7.59036
 3.7933   7.98055
 3.7906   8.28636
 3.7878   8.64140
 3.7850   8.91988
 3.7822   8.98725
 3.7795   9.08665
 3.7767   9.28169
 3.7740   9.45335
 3.7713   9.53340
 3.7685   9.60373
 3.7658   9.74659
 3.7630   9.92200
 3.7603  10.04550
 3.7576  10.02490
 3.7549  10.12240
 3.7521  10.16770
 3.7494  10.35960
 3.7467  10.47090
 3.7440  10.40220
 3.7413  10.46800
 3.7386  10.53910
 3.7359  10.59310
 3.7332  10.58610
 3.7306  10.59050
 3.7279  10.72980
 3.7252  10.94180
 3.7225  11.06980
 3.7199  11.08190
 3.7172  11.04690
 3.7145  11.09680
 3.7119  11.13090
 3.7092  11.08750
 3.7066  11.09290
 3.7039  11.11200
 3.7013  11.16640
 3.6986  11.11730
 3.6960  11.02340
 3.6934  11.09390
 3.6907  11.18230
 3.6881  11.30580
 3.6855  11.31800
 3.6829  11.08910
 3.6803  10.99160
 3.6776  11.15680
 3.6750  11.35050
 3.6724  11.23320
 3.6698  11.13830
 3.6672  11.21450
 3.6646  11.20820
 3.6620  11.08860
 3.6595  11.21480
 3.6569  11.28220
 3.6543  11.12160
 3.6517  10.89130
 3.6492  10.82130
 3.6466  10.92140
 3.6440  11.12750
 3.6415  11.21700
 3.6389  10.98340
 3.6364  10.91000
 3.6338  10.88960
 3.6313  10.85980
 3.6287  10.88950
 3.6262  10.93090
 3.6237  10.94450
 3.6211  10.89320
 3.6186  10.59620
 3.6161  10.40940
 3.6136  10.37560
 3.6111  10.43740
 3.6085  10.47880
 3.6060  10.43370
 3.6035  10.33610
 3.6010  10.19240
 3.5985  10.08620
 3.5960   9.97682
 3.5935   9.77725
 3.5910   9.63718
 3.5886   9.61934
 3.5861   9.56428
 3.5836   9.28350
 3.5811   9.06567
 3.5787   8.97223
 3.5762   8.88769
 3.5737   8.75634
 3.5713   8.64442
 3.5688   8.71459
 3.5663   8.72294
 3.5639   8.56034
 3.5614   8.45668
 3.5590   8.53433
 3.5566   8.63720
 3.5541   8.65379
 3.5517   8.44833
 3.5493   7.95763
 3.5468   7.62806
 3.5444   7.55104
 3.5420   7.51832
 3.5396   7.45544
 3.5372   7.16625
 3.5347   6.93299
 3.5323   6.90267
 3.5299   6.75447
 3.5275   6.49047
 3.5251   6.22311
 3.5227   6.00331
 3.5203   5.83613
 3.5180   5.55497
 3.5156   5.35727
 3.5132   5.20380
 3.5108   5.00126
 3.5084   4.89913
 3.5061   4.87277
 3.5037   4.76990
 3.5013   4.76252
 3.4990   4.65696
 3.4966   4.57226
 3.4943   4.57763
 3.4919   4.59048
 3.4895   4.55759
 3.4872   4.71759
 3.4849   4.81819
 3.4825   4.63918
 3.4802   4.59370
 3.4778   4.58143
 3.4755   4.48541
 3.4732   4.55139
 3.4709   4.49784
 3.4685   4.48962
 3.4662   4.79988
 3.4639   5.07197
 3.4616   5.07670
 3.4593   5.04899
 3.4570   5.17175
 3.4547   5.33523
 3.4524   5.50819
 3.4501   5.33691
 3.4478   5.19986
 3.4455   5.16536
 3.4432   5.08259
 3.4409   5.01473
 3.4386   5.04529
 3.4364   5.14499
 3.4341   5.16018
 3.4318   5.27066
 3.4295   5.30268
 3.4273   5.29955
 3.4250   5.22173
 3.4228   4.93280
 3.4205   4.74066
 3.4182   4.94354
 3.4160   5.08569
 3.4137   5.15521
 3.4115   5.21096
 3.4093   5.17478
 3.4070   5.13261
 3.4048   5.12913
 3.4025   5.16914
 3.4003   5.23196
 3.3981   5.11135
 3.3958   5.03909
 3.3936   5.29144
 3.3914   5.36229
 3.3892   5.11568
 3.3870   5.14261
 3.3848   5.22054
 3.3826   5.27206
 3.3804   5.19480
 3.3782   5.06406
 3.3760   5.14620
 3.3738   5.15794
 3.3716   5.00132
 3.3694   4.99810
 3.3672   5.01230
 3.3650   5.04645
 3.3628   5.05369
 3.3606   5.11629
 3.3585   5.10939
 3.3563   4.90695
 3.3541   4.83145
 3.3520   4.98850
 3.3498   5.05782
 3.3476   4.92072
 3.3455   5.02713
 3.3433   5.36582
 3.3411   5.86251
 3.3390   6.17115
 3.3369   6.20806
 3.3347   6.22128
 3.3326   6.46172
 3.3304   7.03440
 3.3283   7.51508
 3.3262   7.62127
 3.3240   7.57224
 3.3219   7.60583
 3.3198   7.63269
 3.3176   7.50717
 3.3155   7.53322
 3.3134   7.72898
 3.3113   8.05606
 3.3092   8.27156
 3.3071   8.32506
 3.3049   8.31272
 3.3028   8.50082
 3.3007   8.64209
 3.2986   8.47224
 3.2965   8.24507
 3.2944   8.44221
 3.2924   8.87850
 3.2903   9.11490
 3.2882   8.80393
 3.2861   8.56154
 3.2840   8.67554
 3.2819   8.66407
 3.2799   8.70141
 3.2778   8.82469
 3.2757   9.08481
 3.2736   8.97448
 3.2716   8.64210
 3.2695   8.70919
 3.2675   8.84395
 3.2654   8.97362
 3.2634   8.99548
 3.2613   8.85017
 3.2593   8.78907
 3.2572   9.03078
 3.2552   9.34941
 3.2531   9.19409
 3.2511   9.00156
 3.2490   9.13387
 3.2470   9.17628
 3.2450   8.99164
 3.2429   8.80204
 3.2409   8.49854
 3.2389   8.63134
 3.2369   9.08622
 3.2348   8.99244
 3.2328   8.64991
 3.2308   8.62200
 3.2288   8.91788
 3.2268   8.97514
 3.2248   8.99473
 3.2228   9.26945
 3.2208   9.24159
 3.2188   8.99026
 3.2168   9.04448
 3.2148   9.13054
 3.2128   8.96744
 3.2108   9.01129
 3.2088   8.92820
 3.2068   8.88567
 3.2049   8.92588
 3.2029   8.87027
 3.2009   8.89525
 3.1989   8.89258
 3.1970   8.86038
 3.1950   8.81138
 3.1930   8.85588
 3.1911   8.87529
 3.1891   8.87586
 3.1871   8.82114
 3.1852   8.67406
 3.1832   8.66174
 3.1813   8.73418
 3.1793   8.86833
 3.1774   8.83542
 3.1754   8.65801
 3.1735   8.56306
 3.1715   8.56812
 3.1696   8.64525
 3.1677   8.66237
 3.1657   8.61200
 3.1638   8.37830
 3.1619   8.29942
 3.1599   8.14823
 3.1580   8.22755
 3.1561   8.54103
 3.1542   8.54404
 3.1523   8.31240
 3.1503   8.14695
 3.1484   8.06292
 3.1465   8.35960
 3.1446   8.45002
 3.1427   8.36123
 3.1408   8.19697
 3.1389   8.03013
 3.1370   8.13134
 3.1351   8.42126
 3.1332   8.41870
 3.1313   8.43939
 3.1294   8.53940
 3.1275   8.39008
 3.1257   7.80046
 3.1238   7.56400
 3.1219   8.01865
 3.1200   8.36603
 3.1181   8.24564
 3.1163   7.94710
 3.1144   7.77927
 3.1125   7.90259
 3.1107   8.07547
 3.1088   7.81813
 3.1069   7.66525
 3.1051   7.98434
 3.1032   8.18231
 3.1014   8.00018
 3.0995   8.07122
 3.0976   8.14298
 3.0958   7.96002
 3.0940   7.78488
 3.0921   7.71348
 3.0903   7.78198
 3.0884   7.76523
 3.0866   7.85045
 3.0848   7.86782
 3.0829   7.84713
 3.0811   7.88234
 3.0793   7.96105
 3.0774   7.80439
 3.0756   7.73663
 3.0738   7.68569
 3.0720   7.82154
 3.0701   8.09093
 3.0683   8.09342
 3.0665   7.82650
 3.0647   7.50006
 3.0629   7.35244
 3.0611   7.43272
 3.0593   7.58451
 3.0575   7.70908
 3.0557   7.62577
 3.0539   7.32753
 3.0521   7.29235
 3.0503   7.47332
 3.0485   7.56740
 3.0467   7.20242
 3.0449   7.18525
 3.0431   7.75431
 3.0413   7.45437
 3.0396   7.20730
 3.0378   7.37907
 3.0360   7.24000
 3.0342   7.42209
 3.0324   7.59680
 3.0307   7.47949
 3.0289   7.36854
 3.0271   7.53162
 3.0254   7.80079
 3.0236   7.61264
 3.0218   7.39191
 3.0201   7.60537
 3.0183   7.69489
 3.0166   7.46510
 3.0148   7.36753
 3.0130   7.61103
 3.0113   7.36139
 3.0096   7.24322
 3.0078   7.47629
 3.0061   7.56854
 3.0043   7.69043
 3.0026   7.75836
 3.0008   7.82725
 2.9991   7.84014
 2.9974   7.86791
 2.9956   7.64719
 2.9939   7.68559
 2.9922   7.85019
 2.9905   7.93838
 2.9887   7.67238
 2.9870   7.78824
 2.9853   8.00084
 2.9836   7.91555
 2.9819   7.76293
 2.9802   7.25082
 2.9784   7.16575
 2.9767   7.51479
 2.9750   7.79461
 2.9733   8.50601
 2.9716   8.06205
 2.9699   7.56309
 2.9682   7.89434
 2.9665   8.10994
 2.9648   8.08154
 2.9631   7.87123
 2.9614   7.61047
 2.9597   7.55341
 2.9581   7.67102
 2.9564   7.70780
 2.9547   7.13731
 2.9530   7.23980
 2.9513   7.92216
 2.9496   7.93275
 2.9480   7.66305
 2.9463   7.21269
 2.9446   7.55397
 2.9429   8.20621
 2.9413   8.41504
 2.9396   7.75947
 2.9379   7.37618
 2.9363   7.74603
 2.9346   8.01311
 2.9330   7.99488
 2.9313   7.82177
 2.9296   7.69373
 2.9280   7.83083
 2.9263   7.53349
 2.9247   7.30309
 2.9230   7.24866
 2.9214   7.79778
 2.9197   8.27439
 2.9181   8.31540
 2.9165   8.30182
 2.9148   8.20134
 2.9132   7.92796
 2.9116   8.09349
 2.9099   8.02233
 2.9083   7.88209
 2.9067   7.96628
 2.9050   8.38512
 2.9034   8.48756
 2.9018   8.47706
 2.9002   8.42437
 2.8985   8.28617
 2.8969   8.25503
 2.8953   8.58539
 2.8937   8.54480
 2.8921   7.93801
 2.8905   7.97189
 2.8888   8.38327
 2.8872   8.61346
 2.8856   8.46193
 2.8840   8.38920
 2.8824   8.74865
 2.8808   8.70816
 2.8792   8.50505
 2.8776   8.37206
 2.8760   8.41384
 2.8744   8.47069
 2.8728   8.04921
 2.8712   8.19398
 2.8697   8.58217
 2.8681   8.60265
 2.8665   8.48215
 2.8649   8.81284
 2.8633   8.97170
 2.8617   8.65087
 2.8602   8.55366
 2.8586   8.64526
 2.8570   8.63676
 2.8554   8.78461
 2.8539   8.83526
 2.8523   8.75133
 2.8507   8.69336
 2.8492   8.88133
 2.8476   8.99620
 2.8460   8.88493
 2.8445   8.59393
 2.8429   8.36401
 2.8413   8.58498
 2.8398   8.76604
 2.8382   8.67895
 2.8367   8.91417
 2.8351   9.12635
 2.8336   8.87446
 2.8320   8.69378
 2.8305   8.76341
 2.8289   8.66659
 2.8274   8.75875
 2.8259   8.63901
 2.8243   9.20060
 2.8228   9.10611
 2.8213   8.72396
 2.8197   9.23984
 2.8182   9.49424
 2.8167   9.30521
 2.8151   9.42591
 2.8136   9.50745
 2.8121   9.28929
 2.8106   8.95137
 2.8090   9.08966
 2.8075   9.59631
 2.8060   9.66635
 2.8045   9.49415
 2.8030   9.46574
 2.8014   9.23372
 2.7999   8.86765
 2.7984   8.38946
 2.7969   9.13762
 2.7954   9.88623
 2.7939   9.17983
 2.7924   8.97593
 2.7909   9.24103
 2.7894   9.53714
 2.7879   8.84218
 2.7864   8.13348
 2.7849   8.34739
 2.7834   8.48112
 2.7819   8.17534
 2.7804   8.21745
 2.7789   8.70908
 2.7774   8.89014
 2.7759   8.69790
 2.7745   8.90903
 2.7730   9.09644
 2.7715   9.03810
 2.7700   8.50756
 2.7685   8.84095
 2.7671   8.77291
 2.7656   8.21605
 2.7641   8.57173
 2.7626   8.21046
 2.7612   7.82817
 2.7597   8.33673
 2.7582   8.69889
 2.7568   8.95106
 2.7553   9.21782
 2.7538   9.01801
 2.7524   9.35977
 2.7509   9.43213
 2.7494   8.72114
 2.7480   8.58815
 2.7465   9.09645
 2.7451   9.34560
 2.7436   9.17182
 2.7422   9.30352
 2.7407   9.45553
 2.7393   9.58434
 2.7378   9.99760
 2.7364  10.32800
 2.7350  10.24980
 2.7335  10.32490
 2.7321  10.46280
 2.7306  10.33370
 2.7292  10.40490
 2.7278  11.00390
 2.7263  11.42540
 2.7249  11.85050
 2.7235  12.36550
 2.7220  12.54780
 2.7206  12.74160
 2.7192  12.88020
 2.7178  12.98400
 2.7163  13.20860
 2.7149  13.50450
 2.7135  13.76510
 2.7121  13.63770
 2.7106  13.56940
 2.7092  13.98430
 2.7078  14.49480
 2.7064  14.54640
 2.7050  14.84240
 2.7036  15.58660
 2.7022  16.05520
 2.7008  15.94720
 2.6994  15.73970
 2.6980  16.23480
 2.6965  16.84880
 2.6951  16.85700
 2.6938  16.97430
 2.6923  17.26120
 2.6910  17.21780
 2.6896  17.70180
 2.6882  18.22240
 2.6868  18.33560
 2.6854  18.41910
 2.6840  18.55040
 2.6826  18.53850
 2.6812  18.43850
 2.6798  18.50920
 2.6784  18.65570
 2.6771  18.71130
 2.6757  18.61270
 2.6743  18.32820
 2.6729  18.46340
 2.6715  18.75620
 2.6702  19.20200
 2.6688  19.33430
 2.6674  19.01350
 2.6660  18.69940
 2.6647  18.71500
 2.6633  18.88590
 2.6619  19.05980
 2.6606  19.17190
 2.6592  18.99400
 2.6578  19.14340
 2.6565  19.44800
 2.6551  19.21170
 2.6538  19.11580
 2.6524  19.08350
 2.6511  19.03860
 2.6497  18.95540
 2.6484  18.86550
 2.6470  19.17050
 2.6456  19.26240
 2.6443  19.11000
 2.6429  19.31720
 2.6416  19.28120
 2.6403  19.48420
 2.6389  19.56290
 2.6376  19.38490
 2.6362  19.58120
 2.6349  19.47690
 2.6336  19.13770
 2.6322  19.25360
 2.6309  19.42940
 2.6296  19.40200
 2.6282  19.49620
 2.6269  19.57750
 2.6256  19.31410
 2.6242  19.40200
 2.6229  19.52180
 2.6216  19.40160
 2.6203  19.45320
 2.6189  19.40980
 2.6176  19.33800
 2.6163  19.53670
 2.6150  19.35620
 2.6136  19.23350
 2.6123  18.96630
 2.6110  18.90630
 2.6097  19.44700
 2.6084  19.78330
 2.6071  19.34390
 2.6058  19.21070
 2.6044  19.25830
 2.6031  19.43690
 2.6018  19.30590
 2.6005  19.06230
 2.5992  19.25190
 2.5979  19.75630
 2.5966  19.87310
 2.5953  19.84880
 2.5940  19.42680
 2.5927  18.98480
 2.5914  19.03580
 2.5901  19.15320
 2.5888  19.14680
 2.5876  19.19610
 2.5863  18.99430
 2.5850  19.12600
 2.5837  19.25520
 2.5824  18.79920
 2.5811  18.93770
 2.5798  18.85300
 2.5785  18.60940
 2.5773  18.60550
 2.5760  18.82250
 2.5747  18.70290
 2.5734  18.60080
 2.5722  18.56740
 2.5709  18.74260
 2.5696  18.70660
 2.5683  18.61350
 2.5671  18.35570
 2.5658  18.27260
 2.5645  18.27240
 2.5633  18.17480
 2.5620  17.87680
 2.5607  17.50740
 2.5595  17.54580
 2.5582  17.35340
 2.5569  17.68420
 2.5557  17.60160
 2.5544  16.48160
 2.5532  16.24900
 2.5519  16.60730
 2.5507  16.40420
 2.5494  16.11000
 2.5481  15.94640
 2.5469  15.91530
 2.5456  15.55470
 2.5444  15.14250
 2.5431  15.03720
 2.5419  14.93510
 2.5406  14.84140
 2.5394  15.27210
 2.5382  15.30500
 2.5369  14.84470
 2.5357  14.50780
 2.5344  14.61440
 2.5332  14.82690
 2.5320  14.95220
 2.5307  14.95310
 2.5295  14.87980
 2.5283  14.90370
 2.5270  15.40330
 2.5258  15.46300
 2.5246  15.67190
 2.5233  16.08420
 2.5221  16.36890
 2.5209  16.19920
 2.5197  16.15510
 2.5184  16.26360
 2.5172  15.86400
 2.5160  15.60740
 2.5148  15.86590
 2.5136  15.98100
 2.5123  16.27900
 2.5111  16.33800
 2.5099  16.30870
 2.5087  16.47190
 2.5075  16.30150
 2.5063  16.33520
 2.5051  16.47860
 2.5038  16.47460
 2.5026  16.68010
 2.5014  16.81520
 2.5002  16.57290
 2.4990  16.58690
 2.4978  16.68760
 2.4966  16.66930
 2.4954  16.76800
 2.4942  16.69360
 2.4930  16.55670
 2.4918  17.03280
 2.4906  17.39500
 2.4894  17.38190
 2.4882  17.33120
 2.4870  17.18610
 2.4858  17.14190
 2.4846  17.04890
 2.4835  17.08210
 2.4823  17.20270
 2.4811  17.29770
 2.4799  17.49480
 2.4787  17.31830
 2.4775  17.18600
 2.4764  17.21390
 2.4752  17.13080
 2.4740  17.33110
 2.4728  17.56150
 2.4716  17.61790
 2.4705  17.96480
 2.4693  18.18840
 2.4681  18.25650
 2.4669  18.13690
 2.4657  18.03200
 2.4646  18.46730
 2.4634  18.89340
 2.4622  19.05230
 2.4611  18.68230
 2.4599  18.39150
 2.4587  18.69860
 2.4576  18.96970
 2.4564  18.65170
 2.4552  18.81890
 2.4541  19.02700
 2.4529  18.83310
 2.4518  18.88020
 2.4506  19.10090
 2.4494  18.94810
 2.4483  18.95170
 2.4471  18.85720
 2.4460  18.96470
 2.4448  19.34570
 2.4437  19.33760
 2.4425  19.37180
 2.4414  20.01080
 2.4402  19.86820
 2.4391  19.32620
 2.4379  19.20130
 2.4368  19.06950
 2.4356  19.30980
 2.4345  19.43950
 2.4333  19.62670
 2.4322  19.77830
 2.4311  19.99980
 2.4299  19.77940
 2.4288  19.78640
 2.4276  19.72490
 2.4265  19.42250
 2.4254  19.10160
 2.4242  19.21190
 2.4231  19.73390
 2.4220  20.19950
 2.4209  20.19990
 2.4197  19.88350
 2.4186  19.84330
 2.4175  20.12150
 2.4163  20.06640
 2.4152  19.48840
 2.4141  19.39200
 2.4130  19.94790
 2.4118  19.98590
 2.4107  19.71420
 2.4096  19.42790
 2.4085  19.11860
 2.4074  19.71640
 2.4063  19.80920
 2.4051  19.53830
 2.4040  19.84570
 2.4029  19.96770
 2.4018  20.10650
 2.4007  20.26260
 2.3996  20.00010
 2.3985  20.01960
 2.3973  19.97850
 2.3962  20.13970
 2.3951  20.02320
 2.3940  19.99430
 2.3929  19.91340
 2.3918  20.00000
 2.3907  20.06240
 2.3896  19.86350
 2.3885  20.12930
 2.3874  20.80600
 2.3863  20.65700
 2.3852  19.89890
 2.3841  19.33790
 2.3830  19.12140
 2.3819  19.44330
 2.3808  19.97650
 2.3798  19.62900
 2.3786  19.34040
 2.3776  19.75960
 2.3765  19.69730
 2.3754  19.91200
 2.3743  20.03670
 2.3732  19.73810
 2.3721  19.56590
 2.3710  19.56590
 2.3700  19.64980
 2.3689  19.54400
 2.3678  19.34050
 2.3667  19.26950
 2.3656  19.21740
 2.3645  19.28480
 2.3635  19.10940
 2.3624  18.95270
 2.3613  18.84950
 2.3603  18.50520
 2.3592  18.60170
 2.3581  18.66630
 2.3570  18.41250
 2.3560  18.84820
 2.3549  18.51830
 2.3538  17.92780
 2.3527  17.94600
 2.3517  17.88990
 2.3506  17.74600
 2.3495  17.59320
 2.3485  17.92430
 2.3474  18.02850
 2.3464  17.92310
 2.3453  18.22570
 2.3442  17.89930
 2.3432  17.05280
 2.3421  16.77130
 2.3411  17.50860
 2.3400  17.85570
 2.3390  17.60630
 2.3379  17.38060
 2.3369  17.47390
 2.3358  17.73140
 2.3347  17.69810
 2.3337  17.55600
 2.3326  17.55590
 2.3316  17.93360
 2.3306  18.16280
 2.3295  18.38640
 2.3285  18.33400
 2.3274  18.22620
 2.3264  18.04190
 2.3253  17.89580
 2.3243  18.26700
 2.3232  18.66820
 2.3222  18.76230
 2.3212  18.52420
 2.3201  18.53470
 2.3191  18.45510
 2.3180  18.06540
 2.3170  18.05810
 2.3160  18.13730
 2.3149  18.17050
 2.3139  18.61180
 2.3129  18.65770
 2.3118  18.29540
 2.3108  18.66220
 2.3098  19.08850
 2.3088  19.03200
 2.3077  18.76270
 2.3067  18.76540
 2.3057  19.01580
 2.3047  18.85360
 2.3036  19.30050
 2.3026  19.15470
 2.3016  18.65190
 2.3006  19.09570
 2.2995  19.16130
 2.2985  18.94080
 2.2975  18.92180
 2.2965  19.45340
 2.2955  19.59560
 2.2944  19.11980
 2.2934  18.95750
 2.2924  19.07770
 2.2914  19.11410
 2.2904  18.95170
 2.2894  19.24570
 2.2884  19.25300
 2.2874  19.05010
 2.2864  19.24330
 2.2854  19.34290
 2.2843  19.14930
 2.2833  19.31540
 2.2823  19.18960
 2.2813  18.99730
 2.2803  19.22240
 2.2793  19.38840
 2.2783  19.73230
 2.2773  20.10110
 2.2763  20.12300
 2.2753  19.82490
 2.2743  19.96130
 2.2733  20.11780
 2.2723  19.45240
 2.2713  18.97280
 2.2703  19.32060
 2.2694  19.59020
 2.2684  19.32610
 2.2674  19.97000
 2.2664  20.54280
 2.2654  19.82270
 2.2644  19.46980
 2.2634  19.97270
 2.2624  20.30750
 2.2614  20.32660
 2.2605  20.47010
 2.2595  20.50420
 2.2585  20.87360
 2.2575  20.87900
 2.2565  20.23340
 2.2555  19.86310
 2.2546  20.06030
 2.2536  20.23250
 2.2526  20.11960
 2.2516  20.15780
 2.2506  20.52130
 2.2497  20.62130
 2.2487  20.75810
 2.2477  20.34450
 2.2467  20.14680
 2.2458  20.18510
 2.2448  20.26260
 2.2438  20.29270
 2.2428  20.30580
 2.2419  20.58890
 2.2409  20.66480
 2.2399  20.54450
 2.2390  20.17740
 2.2380  19.36570
 2.2370  19.54490
 2.2361  20.23520
 2.2351  20.58040
 2.2342  20.16170
 2.2332  20.12070
 2.2322  20.25800
 2.2313  19.81030
 2.2303  19.99950
 2.2294  20.25890
 2.2284  19.97800
 2.2274  20.50100
 2.2265  20.85930
 2.2255  21.06090
 2.2246  21.02140
 2.2236  20.40380
 2.2227  19.82330
 2.2217  19.89530
 2.2208  20.07980
 2.2198  20.06870
 2.2189  20.41430
 2.2179  20.58470
 2.2170  20.42840
 2.2160  20.75100
 2.2151  20.58420
 2.2141  20.28910
 2.2132  20.38760
 2.2122  20.64380
 2.2113  21.08180
 2.2103  20.90860
 2.2094  20.26600
 2.2085  19.98570
 2.2075  20.69480
 2.2066  20.35710
 2.2056  19.96100
 2.2047  20.25660
 2.2038  20.28660
 2.2028  20.50600
 2.2019  20.59370
 2.2010  20.98580
 2.2000  21.30210
 2.1991  21.34880
 2.1982  20.81310
 2.1972  19.85640
 2.1963  19.97690
 2.1954  20.94300
 2.1944  21.17100
 2.1935  20.71490
 2.1926  20.06400
 2.1917  20.23720
 2.1907  20.67720
 2.1898  20.63250
 2.1889  21.15690
 2.1880  21.66240
 2.1870  21.04400
 2.1861  19.91160
 2.1852  19.81170
 2.1843  20.43950
 2.1833  20.29520
 2.1824  20.68070
 2.1815  20.55340
 2.1806  20.64810
 2.1797  20.68940
 2.1788  21.16040
 2.1778  21.76850
 2.1769  20.83090
 2.1760  20.23580
 2.1751  20.56050
 2.1742  20.23140
 2.1733  19.76700
 2.1724  20.70030
 2.1715  21.37680
 2.1706  20.44130
 2.1696  20.03540
 2.1687  20.55720
 2.1678  20.57600
 2.1669  20.56340
 2.1660  20.26340
 2.1651  21.12810
 2.1642  21.43640
 2.1633  20.82260
 2.1624  20.63320
 2.1615  20.46670
 2.1606  20.88000
 2.1597  20.68070
 2.1588  19.98140
 2.1579  20.05910
 2.1570  20.98360
 2.1561  20.71900
 2.1552  20.01250
 2.1543  20.31190
 2.1534  20.80930
 2.1525  21.13410
 2.1517  21.56940
 2.1507  21.38740
 2.1499  20.85980
 2.1490  20.51680
 2.1481  19.87750
 2.1472  19.93590
 2.1463  21.31470
 2.1454  22.20250
 2.1445  21.86930
 2.1436  21.35920
 2.1428  20.46410
 2.1419  20.58960
 2.1410  20.33420
 2.1401  20.12060
 2.1392  20.59410
 2.1383  21.05880
 2.1375  21.23750
 2.1366  20.85110
 2.1357  20.45300
 2.1348  20.76400
 2.1339  20.88910
 2.1331  20.99820
 2.1322  20.58160
 2.1313  20.16890
 2.1304  20.34930
 2.1296  20.32640
 2.1287  20.33320
 2.1278  20.98100
 2.1269  21.50400
 2.1261  21.04990
 2.1252  20.48370
 2.1243  20.19910
 2.1235  20.50020
 2.1226  20.53220
 2.1217  20.80600
 2.1208  21.34080
 2.1200  20.91740
 2.1191  20.03010
 2.1183  20.50750
 2.1174  21.14750
 2.1165  21.59730
 2.1157  21.57510
 2.1148  20.67020
 2.1139  20.45950
 2.1131  20.57200
 2.1122  20.73590
 2.1113  20.84100
 2.1105  20.89570
 2.1096  20.41310
 2.1088  20.24080
 2.1079  21.54710
 2.1071  21.86690
 2.1062  20.57960
 2.1054  19.75120
 2.1045  19.84920
 2.1036  20.83820
 2.1028  21.15880
 2.1019  20.98680
 2.1011  20.85420
 2.1002  20.91110
 2.0994  20.87440
 2.0985  20.46670
 2.0977  20.80600
 2.0968  21.14230
 2.0960  21.02980
 2.0951  21.15190
 2.0943  21.53730
 2.0934  21.43310
 2.0926  20.54230
 2.0918  20.19990
 2.0909  21.01600
 2.0901  21.77440
 2.0892  21.25840
 2.0884  20.51260
 2.0875  21.07550
 2.0867  21.95100
 2.0859  20.99280
 2.0850  20.68820
 2.0842  21.09430
 2.0833  21.02250
 2.0825  21.30270
 2.0817  21.99020
 2.0808  22.32750
 2.0800  21.41120
 2.0792  20.76930
 2.0783  20.53990
 2.0775  21.29800
 2.0767  22.22380
 2.0759  21.55080
 2.0750  21.28090
 2.0742  21.71540
 2.0734  22.46750
 2.0725  23.37080
 2.0717  22.69130
 2.0709  21.68530
 2.0701  20.78150
 2.0692  21.06970
 2.0684  22.38660
 2.0676  22.01770
 2.0667  20.01520
 2.0659  19.00770
 2.0651  20.10810
 2.0643  21.53260
 2.0635  20.25280
 2.0626  18.90080
 2.0618  19.20680
 2.0610  21.22290
 2.0602  23.01180
 2.0594  22.08020
 2.0585  19.83340
 2.0577  18.56490
 2.0569  19.98560
 2.0561  22.12620
 2.0553  22.54920
 2.0545  21.81560
 2.0537  21.32310
 2.0528  20.66510
 2.0520  21.00260
 2.0512  20.92560
 2.0504  18.77260
 2.0496  17.40520
 2.0488  19.75730
 2.0480  22.52460
 2.0472  20.13010
 2.0464  18.50380
 2.0456  19.58100
 2.0447  22.16400
 2.0439  22.73800
 2.0431  20.94570
 2.0423  20.87020
 2.0415  21.49170
 2.0407  20.42900
 2.0399  18.66790
 2.0391  18.67450
 2.0383  20.29430
 2.0375  20.56060
 2.0367  21.79910
 2.0359  23.08670
 2.0351  21.91050
 2.0343  20.83420
 2.0335  20.74080
 2.0327  21.63000
 2.0319  22.31960
 2.0311  21.81380
 2.0303  20.28190
 2.0295  19.22840
 2.0287  18.59420
 2.0280  19.52820
 2.0272  21.35200
 2.0264  21.96270
 2.0256  22.00640
 2.0248  19.65790
 2.0240  19.12670
 2.0232  18.25840
 2.0224  19.63110
 2.0216  20.66080
 2.0208  20.80520
 2.0200  21.67260
 2.0193  21.95160
 2.0185  21.67200
 2.0177  21.71550
 2.0169  23.46190
 2.0161  21.80220
 2.0153  19.61840
 2.0146  20.49990
 2.0138  20.81990
 2.0130  21.01770
 2.0122  21.04920
 2.0114  21.46260
 2.0107  21.86020
 2.0099  20.12210
 2.0091  19.77590
 2.0083  20.13760
 2.0075  20.65440
 2.0068  21.03770
 2.0060  20.50710
 2.0052  19.38870
 2.0044  20.19270
 2.0037  20.54780
 2.0029  20.21350
 2.0021  20.06760
 2.0013  20.73710
 2.0006  22.11170
 1.9998  22.22910
