Name: Chlorite
Type: Mineral
Class: Silicates
Subclass: Phyllosilicates
Particle Size: 0-45um
Sample No.: PS-12C
Owner: JPL
Wavelength range: IR
Origin: USA, California
Collected by Ward's
Description: 





Measurement: Hemispherical reflectance
First Column: X
Second Column: Y
X Units:  Wavelength (micrometers)
Y Units:  Reflectance (percent)
First X Value: 15.3853
Last X Value: 2.00032
Number of X Values: 2256
Additional information: ps12ca.txt
 
15.3853	3.59237
15.3397	3.76101
15.2945	3.63243
15.2495	3.56468
15.2048	3.37463
15.1603	3.16854
15.1161	3.09814
15.0722	3.03395
15.0285	2.75854
14.9851	2.75829
14.9419	2.67179
14.8989	2.54212
14.8563	2.56824
14.8138	2.5027
14.7716	2.51121
14.7296	2.51864
14.6879	2.54423
14.6464	2.43544
14.6052	2.46981
14.5641	2.4544
14.5233	2.22851
14.4828	2.12316
14.4424	2.19745
14.4023	2.41737
14.3624	2.51346
14.3227	2.29991
14.2833	2.05801
14.244	1.93229
14.205	1.86334
14.1662	2.01588
14.1276	2.09054
14.0892	1.99114
14.051	2.02063
14.0131	2.16933
13.9753	1.953
13.9377	1.81637
13.9004	2.05662
13.8632	2.22909
13.8262	2.11956
13.7895	2.21439
13.7529	2.32142
13.7165	2.24127
13.6803	2.17678
13.6443	2.13104
13.6085	2.19404
13.5729	2.14419
13.5374	2.09973
13.5022	2.08417
13.4671	2.13036
13.4322	2.20467
13.3975	2.29295
13.363	2.44412
13.3286	2.40431
13.2944	2.28795
13.2604	2.33691
13.2266	2.25297
13.193	2.16058
13.1595	2.16241
13.1262	2.11848
13.093	2.17076
13.06	2.39174
13.0272	2.28705
12.9946	2.07916
12.9621	1.95989
12.9298	1.83818
12.8976	1.73987
12.8656	1.69975
12.8337	1.74604
12.8021	1.75974
12.7705	1.72753
12.7391	1.64887
12.7079	1.55944
12.6769	1.57282
12.6459	1.4806
12.6152	1.33662
12.5845	1.36482
12.5541	1.34131
12.5238	1.36931
12.4936	1.43506
12.4635	1.38931
12.4337	1.43801
12.4039	1.43764
12.3743	1.25114
12.3448	1.28839
12.3155	1.58525
12.2863	1.63479
12.2573	1.48949
12.2284	1.59406
12.1996	1.81265
12.171	1.84192
12.1425	1.84639
12.1141	1.80076
12.0859	1.80505
12.0578	1.91959
12.0298	1.99149
12.0019	2.15094
11.9742	2.18678
11.9466	2.2739
11.9192	2.42817
11.8918	2.58314
11.8646	2.70855
11.8375	2.88656
11.8106	2.92522
11.7837	3.02167
11.757	3.08162
11.7304	3.14192
11.7039	3.37058
11.6776	3.55868
11.6513	3.59417
11.6252	3.63386
11.5992	3.54423
11.5733	3.47728
11.5475	3.56144
11.5219	3.75574
11.4963	3.80978
11.4709	3.7353
11.4455	3.75133
11.4203	3.8977
11.3952	3.84677
11.3702	3.85728
11.3454	4.02912
11.3206	4.17286
11.2959	4.21716
11.2714	4.26606
11.2469	4.39675
11.2226	4.43972
11.1983	4.34972
11.1742	4.37847
11.1502	4.49598
11.1263	4.58083
11.1024	4.62165
11.0787	4.72237
11.0551	4.76894
11.0316	4.76533
11.0081	4.80323
10.9848	4.85761
10.9616	4.84311
10.9385	4.89455
10.9154	4.97904
10.8925	4.96858
10.8697	4.9436
10.8469	5.09977
10.8243	5.15635
10.8017	5.2538
10.7793	5.44361
10.7569	5.50852
10.7346	5.56518
10.7125	5.66866
10.6904	5.67072
10.6684	5.6663
10.6465	5.81786
10.6247	6.02887
10.6029	6.10763
10.5813	6.28584
10.5597	6.44065
10.5383	6.56343
10.5169	6.71356
10.4956	6.75847
10.4744	6.8351
10.4533	6.92989
10.4323	7.03105
10.4113	7.01715
10.3904	6.90796
10.3697	6.86897
10.349	6.83054
10.3284	6.72507
10.3078	6.811
10.2874	6.8511
10.267	6.80238
10.2467	6.87296
10.2265	6.92392
10.2064	6.97307
10.1863	7.18375
10.1663	7.37333
10.1464	7.57327
10.1266	7.78077
10.1069	7.96783
10.0872	8.09553
10.0676	8.28499
10.0481	8.51609
10.0287	8.71225
10.0093	8.85984
9.99005	9.01917
9.97084	9.16547
9.95169	9.4533
9.93263	9.80975
9.91364	10.158
9.89472	10.4336
9.87587	10.7539
9.8571	10.9936
9.83839	11.2045
9.81976	11.4918
9.80119	11.7236
9.78271	12.0183
9.76428	12.1853
9.74592	12.1888
9.72764	12.255
9.70943	12.2545
9.69128	12.0882
9.6732	11.9121
9.65518	11.5468
9.63724	11.0172
9.61935	10.5402
9.60155	10.1799
9.5838	9.83745
9.56611	9.46047
9.5485	9.13502
9.53094	8.85106
9.51345	8.57014
9.49604	8.42314
9.47867	8.22368
9.46137	7.9668
9.44414	7.86185
9.42697	7.95912
9.40986	8.22436
9.39281	8.39516
9.37583	8.46028
9.35891	8.55286
9.34204	8.54432
9.32524	8.36794
9.3085	7.98462
9.29182	7.76984
9.27519	7.41031
9.25863	6.89027
9.24213	6.59394
9.22568	6.2922
9.2093	5.87173
9.19297	5.56145
9.17669	5.45132
9.16048	5.34959
9.14433	5.17051
9.12823	5.00632
9.11218	4.95478
9.0962	4.88835
9.08027	4.66762
9.06439	4.3802
9.04858	4.00218
9.03281	3.66227
9.0171	3.35211
9.00145	3.1706
8.98585	3.02929
8.9703	2.76409
8.9548	2.5033
8.93937	2.33596
8.92398	2.00652
8.90865	1.78511
8.89337	1.66297
8.87814	1.60088
8.86296	1.54361
8.84784	1.33608
8.83277	1.13908
8.81774	1.08773
8.80277	1.0566
8.78786	1.01346
8.77298	0.884877
8.75816	0.799291
8.7434	0.679971
8.72868	0.635446
8.714	0.72193
8.69938	0.804453
8.68481	0.618171
8.67029	0.597995
8.65581	0.60414
8.64139	0.606283
8.62701	0.711577
8.61268	0.650848
8.5984	0.574304
8.58416	0.631928
8.56997	0.607146
8.55583	0.820329
8.54174	0.971573
8.52769	0.932432
8.51368	0.934135
8.49973	0.935471
8.48582	1.17182
8.47195	1.44293
8.45813	1.46868
8.44436	1.36397
8.43062	1.44142
8.41693	1.64024
8.4033	1.68254
8.3897	1.80595
8.37614	1.95314
8.36264	2.10419
8.34917	2.25731
8.33574	2.42924
8.32236	2.49365
8.30903	2.56812
8.29573	2.79121
8.28248	2.98456
8.26927	3.11231
8.2561	3.33103
8.24298	3.34748
8.2299	3.35567
8.21685	3.50607
8.20385	3.86514
8.19089	4.09785
8.17797	4.20002
8.16509	4.27185
8.15225	4.14069
8.13946	4.27989
8.1267	4.62575
8.11398	4.85526
8.10131	5.04244
8.08867	5.15263
8.07606	5.13646
8.0635	5.2902
8.05099	5.56491
8.0385	5.77972
8.02606	5.81779
8.01366	5.90236
8.00129	6.08425
7.98896	6.24925
7.97667	6.28022
7.96442	6.41626
7.9522	6.65453
7.94002	6.69587
7.92788	6.78853
7.91578	6.93388
7.90371	7.08275
7.89168	7.36264
7.87969	7.54832
7.86773	7.57545
7.85581	7.64324
7.84392	7.73263
7.83207	7.8893
7.82026	8.05404
7.80849	8.18579
7.79674	8.28149
7.78503	8.37529
7.77337	8.49824
7.76173	8.60007
7.75012	8.6918
7.73856	8.86519
7.72703	9.01856
7.71553	9.07619
7.70406	9.11284
7.69263	9.1899
7.68123	9.29604
7.66987	9.40702
7.65855	9.55983
7.64725	9.71324
7.63598	9.78021
7.62475	9.87088
7.61356	10.0436
7.60239	10.1792
7.59126	10.2392
7.58017	10.2677
7.5691	10.308
7.55806	10.401
7.54707	10.468
7.5361	10.5333
7.52516	10.7434
7.51425	10.8587
7.50338	10.8833
7.49253	10.8903
7.48172	11.08
7.47094	11.2675
7.46019	11.3367
7.44947	11.3303
7.43879	11.4399
7.42813	11.6077
7.4175	11.6061
7.4069	11.6104
7.39634	11.7675
7.3858	11.8088
7.37529	11.8204
7.36482	11.9971
7.35437	12.1797
7.34396	12.2544
7.33357	12.3276
7.32321	12.4649
7.31288	12.5887
7.30258	12.637
7.29231	12.7123
7.28207	12.8499
7.27185	12.996
7.26167	13.1267
7.25152	13.2192
7.24139	13.3357
7.23129	13.4586
7.22122	13.5594
7.21117	13.7172
7.20116	13.8281
7.19117	13.8381
7.18121	13.9309
7.17128	14.1037
7.16137	14.1912
7.1515	14.2522
7.14164	14.3598
7.13182	14.4265
7.12203	14.5236
7.11225	14.4962
7.10251	14.5413
7.0928	14.6783
7.08311	14.8456
7.07344	14.9687
7.06381	14.9969
7.0542	15.1968
7.04461	15.3989
7.03506	15.2809
7.02552	15.2662
7.01601	15.3626
7.00653	15.4189
6.99708	15.5888
6.98765	15.7096
6.97824	15.7495
6.96886	15.9967
6.95951	16.2734
6.95018	16.2193
6.94087	16.2268
6.9316	16.322
6.92234	16.3849
6.91311	16.4359
6.90391	16.5749
6.89473	16.6314
6.88557	16.6016
6.87644	16.6908
6.86733	17.0238
6.85824	17.0454
6.84918	16.8703
6.84015	16.9168
6.83114	17.0175
6.82215	17.0056
6.81319	16.9465
6.80424	17.0388
6.79532	17.2551
6.78643	17.2835
6.77756	17.1897
6.76871	17.1792
6.75989	17.1813
6.75109	17.2106
6.74231	17.1672
6.73355	17.155
6.72482	17.3017
6.71611	17.4812
6.70742	17.4056
6.69875	17.2198
6.69011	17.3444
6.68149	17.4967
6.67289	17.3256
6.66431	17.2425
6.65576	17.2774
6.64722	17.5181
6.63871	17.872
6.63022	17.6969
6.62175	17.3736
6.61331	17.3247
6.60488	17.216
6.59648	17.2695
6.5881	17.3348
6.57974	17.3617
6.5714	17.402
6.56308	17.1563
6.55478	17.0563
6.54651	16.9328
6.53825	16.7898
6.53001	16.6763
6.5218	16.7026
6.51361	16.5599
6.50544	16.5433
6.49729	16.7813
6.48915	16.7084
6.48104	16.3339
6.47295	15.9369
6.46488	15.6368
6.45683	15.5988
6.4488	15.512
6.44079	15.4241
6.4328	15.4322
6.42482	15.4538
6.41687	15.6027
6.40894	15.4045
6.40103	14.8934
6.39314	14.6272
6.38526	14.5774
6.37741	14.5423
6.36957	14.4519
6.36176	14.2908
6.35396	14.2346
6.34618	14.3871
6.33843	14.2374
6.33069	13.9756
6.32297	13.8276
6.31527	13.7552
6.30758	13.7758
6.29992	13.8788
6.29227	13.9647
6.28465	13.9793
6.27704	13.9737
6.26945	14.0418
6.26188	14.1182
6.25432	14.1036
6.24679	14.1925
6.23927	14.2594
6.23177	14.2539
6.22429	14.2241
6.21683	14.2513
6.20938	14.3329
6.20195	14.3768
6.19454	14.4269
6.18715	14.6802
6.17978	14.5874
6.17242	14.4063
6.16508	14.4786
6.15776	14.6961
6.15045	14.7544
6.14317	14.668
6.1359	14.6098
6.12864	14.6244
6.12141	14.8212
6.11419	15.1233
6.10699	15.0396
6.0998	14.9003
6.09263	14.9174
6.08549	14.9747
6.07835	15.1999
6.07123	15.3577
6.06413	15.3132
6.05705	15.5542
6.04998	16.0771
6.04293	15.8428
6.0359	15.5126
6.02888	15.5565
6.02187	15.5787
6.01489	15.662
6.00792	15.6597
6.00096	15.6815
5.99403	15.8656
5.98711	15.9682
5.9802	15.9186
5.97331	15.9491
5.96644	16.0252
5.95958	15.9429
5.95274	15.9485
5.94591	16.0694
5.9391	16.377
5.9323	16.2735
5.92552	16.0541
5.91876	16.1315
5.91201	16.2033
5.90528	16.2108
5.89856	16.4443
5.89186	16.5054
5.88517	16.7332
5.8785	16.8145
5.87184	16.5373
5.8652	16.6395
5.85857	16.7383
5.85196	16.7698
5.84536	16.7712
5.83878	16.9289
5.83221	17.2234
5.82566	17.5451
5.81912	17.5987
5.81259	17.4365
5.80608	17.403
5.79959	17.4777
5.79311	17.6483
5.78665	17.8436
5.78019	17.9831
5.77376	18.234
5.76734	18.5814
5.76093	18.5585
5.75453	18.5205
5.74815	18.7105
5.74179	18.8385
5.73543	18.8977
5.7291	18.9539
5.72277	19.1088
5.71646	19.2998
5.71017	19.4286
5.70389	19.3632
5.69762	19.3583
5.69136	19.4261
5.68513	19.4461
5.6789	19.5679
5.67268	19.6439
5.66648	19.6441
5.6603	19.7774
5.65413	19.9002
5.64797	19.9859
5.64182	20.1257
5.63569	20.0685
5.62957	19.8888
5.62347	19.8414
5.61737	19.9389
5.61129	19.9708
5.60522	19.9677
5.59917	20.0751
5.59313	20.1412
5.5871	20.1506
5.58109	20.2699
5.57509	20.3549
5.5691	20.3117
5.56312	20.3137
5.55716	20.4126
5.55121	20.4417
5.54528	20.3985
5.53935	20.4556
5.53344	20.5101
5.52754	20.5628
5.52166	20.6316
5.51578	20.636
5.50992	20.6377
5.50407	20.7995
5.49823	20.8756
5.49241	20.8328
5.4866	20.8929
5.4808	21.0391
5.47501	21.1499
5.46923	21.3453
5.46347	21.4785
5.45772	21.4579
5.45198	21.5695
5.44625	21.6758
5.44054	21.7363
5.43484	21.7726
5.42914	21.9247
5.42347	22.2019
5.4178	22.2372
5.41214	22.2447
5.4065	22.3143
5.40087	22.3123
5.39525	22.3899
5.38964	22.4624
5.38404	22.5902
5.37846	22.7219
5.37288	22.8485
5.36732	22.9886
5.36177	23.0404
5.35623	23.095
5.35071	23.1754
5.34519	23.1904
5.33968	23.2066
5.33419	23.2815
5.32871	23.3379
5.32324	23.3546
5.31778	23.448
5.31233	23.5913
5.30689	23.6516
5.30147	23.6327
5.29605	23.6905
5.29065	23.7674
5.28525	23.7572
5.27987	23.8613
5.2745	24.0088
5.26914	24.0472
5.26379	24.0622
5.25845	24.1174
5.25312	24.1804
5.24781	24.2733
5.2425	24.3526
5.23721	24.4546
5.23192	24.585
5.22665	24.6258
5.22138	24.7064
5.21613	24.9351
5.21089	25.0044
5.20566	24.9783
5.20044	25.0363
5.19522	25.1392
5.19002	25.2403
5.18483	25.3253
5.17965	25.4373
5.17448	25.5065
5.16933	25.5474
5.16418	25.5769
5.15904	25.6327
5.15391	25.7639
5.14879	25.8311
5.14368	25.8508
5.13859	25.8914
5.1335	25.8774
5.12842	25.8672
5.12335	25.9392
5.1183	26.036
5.11325	26.1242
5.10821	26.0968
5.10318	26.0261
5.09817	25.9856
5.09316	25.9877
5.08816	26.0597
5.08317	26.0927
5.07819	26.0229
5.07322	26.0671
5.06826	26.0848
5.06331	26.0058
5.05837	25.9895
5.05344	26.0631
5.04852	26.1099
5.04361	26.0921
5.03871	26.0155
5.03382	25.9826
5.02894	25.9301
5.02406	25.8757
5.0192	25.8874
5.01435	25.961
5.0095	25.9862
5.00467	26.0147
4.99984	26.0823
4.99502	26.0453
4.99021	26.0595
4.98542	26.1864
4.98063	26.2892
4.97585	26.3327
4.97108	26.423
4.96632	26.5557
4.96156	26.6979
4.95682	26.887
4.95209	27.0503
4.94736	27.2477
4.94264	27.41
4.93794	27.6389
4.93324	27.877
4.92855	28.0828
4.92387	28.3137
4.9192	28.5514
4.91453	28.8162
4.90988	29.0388
4.90524	29.2312
4.9006	29.5129
4.89597	29.7505
4.89135	30.0029
4.88674	30.242
4.88214	30.4377
4.87755	30.6564
4.87296	30.9053
4.86839	31.2116
4.86382	31.5314
4.85926	31.7829
4.85471	31.9511
4.85017	32.1042
4.84564	32.3517
4.84111	32.6437
4.8366	32.8218
4.83209	33.0355
4.82759	33.2008
4.8231	33.3432
4.81862	33.5625
4.81415	33.773
4.80968	33.9896
4.80522	34.2168
4.80077	34.4108
4.79633	34.5744
4.7919	34.7236
4.78747	34.9035
4.78306	35.0811
4.77865	35.2911
4.77425	35.5201
4.76986	35.7061
4.76547	35.8366
4.7611	36.0533
4.75673	36.2795
4.75237	36.4197
4.74802	36.6067
4.74367	36.879
4.73934	37.1741
4.73501	37.4655
4.73069	37.7666
4.72638	38.0674
4.72207	38.3926
4.71777	38.6894
4.71348	39.0555
4.7092	39.3741
4.70493	39.6311
4.70066	39.8854
4.69641	40.2616
4.69216	40.6587
4.68791	40.9239
4.68368	41.1849
4.67945	41.4619
4.67523	41.7698
4.67102	42.0932
4.66682	42.4043
4.66262	42.7303
4.65843	42.9918
4.65425	43.2221
4.65007	43.4651
4.64591	43.6981
4.64175	43.8093
4.6376	43.9839
4.63345	44.1843
4.62932	44.324
4.62519	44.4826
4.62106	44.6636
4.61695	44.8618
4.61284	45.1033
4.60874	45.3106
4.60465	45.4687
4.60056	45.7334
4.59648	46.0439
4.59241	46.3294
4.58835	46.6665
4.58429	46.9952
4.58024	47.3416
4.5762	47.6211
4.57216	47.9232
4.56814	48.1721
4.56411	48.4429
4.5601	48.7362
4.55609	48.9962
4.55209	49.2588
4.5481	49.5151
4.54411	49.6605
4.54013	49.7345
4.53616	49.8639
4.5322	50.0845
4.52824	50.27
4.52429	50.4371
4.52034	50.505
4.51641	50.5302
4.51247	50.5762
4.50855	50.7831
4.50463	51.0126
4.50072	51.1294
4.49682	51.214
4.49292	51.2434
4.48903	51.3692
4.48515	51.5094
4.48127	51.6293
4.4774	51.7184
4.47354	51.8081
4.46968	51.8849
4.46584	51.9566
4.46199	52.1012
4.45815	52.2736
4.45432	52.3814
4.4505	52.4676
4.44668	52.5397
4.44287	52.5903
4.43907	52.7239
4.43527	52.8722
4.43148	52.8928
4.4277	52.9154
4.42392	53.0371
4.42015	53.129
4.41638	53.1633
4.41262	53.2526
4.40887	53.3937
4.40513	53.4985
4.40139	53.5709
4.39765	53.6124
4.39393	53.6515
4.39021	53.7483
4.38649	53.8236
4.38278	53.8051
4.37908	53.8836
4.37539	54.0154
4.3717	54.1084
4.36801	54.1761
4.36434	54.1955
4.36067	54.2538
4.357	54.392
4.35335	54.4694
4.34969	54.4601
4.34605	54.4679
4.34241	54.5509
4.33877	54.6479
4.33514	54.6878
4.33152	54.6781
4.32791	54.7726
4.3243	54.8842
4.32069	54.9611
4.3171	55.0135
4.31351	55.0478
4.30992	55.1733
4.30634	55.2532
4.30277	55.255
4.2992	55.2943
4.29564	55.3091
4.29208	55.4125
4.28853	55.5243
4.28499	55.615
4.28145	55.7096
4.27792	55.6899
4.27439	55.6914
4.27087	55.7921
4.26735	55.7396
4.26384	55.727
4.26034	55.8219
4.25684	55.8853
4.25335	55.9826
4.24986	56.0982
4.24638	56.1954
4.24291	56.2848
4.23944	56.334
4.23598	56.3982
4.23252	56.4555
4.22906	56.5024
4.22562	56.5653
4.22218	56.6345
4.21874	56.6179
4.21531	56.6279
4.21189	56.6298
4.20847	56.6399
4.20506	56.7165
4.20165	56.7463
4.19825	56.7555
4.19485	56.785
4.19146	56.8031
4.18807	56.843
4.18469	56.8514
4.18132	56.873
4.17795	56.8994
4.17458	56.9453
4.17123	57.0632
4.16787	57.1631
4.16453	57.2044
4.16118	57.2675
4.15785	57.3095
4.15451	57.3757
4.15119	57.4454
4.14787	57.4353
4.14455	57.3891
4.14124	57.4341
4.13794	57.5214
4.13464	57.5887
4.13134	57.5955
4.12805	57.5541
4.12477	57.5756
4.12149	57.6722
4.11822	57.744
4.11495	57.7713
4.11168	57.7836
4.10843	57.8289
4.10517	57.9112
4.10192	57.9263
4.09868	57.9475
4.09545	57.937
4.09221	57.8733
4.08899	57.9431
4.08576	58.0441
4.08255	58.0638
4.07933	58.0767
4.07613	58.1051
4.07292	58.196
4.06973	58.2317
4.06654	58.1707
4.06335	58.1822
4.06017	58.2157
4.05699	58.209
4.05382	58.2509
4.05065	58.2441
4.04749	58.2036
4.04433	58.2295
4.04118	58.2601
4.03803	58.2277
4.03489	58.2511
4.03175	58.3112
4.02862	58.3055
4.02549	58.3123
4.02237	58.3382
4.01925	58.3533
4.01614	58.3249
4.01303	58.3481
4.00993	58.3448
4.00683	58.3133
4.00373	58.2709
4.00064	58.3068
3.99756	58.3759
3.99448	58.4115
3.9914	58.3952
3.98833	58.3692
3.98527	58.3229
3.98221	58.3072
3.97915	58.3598
3.9761	58.3508
3.97305	58.3131
3.97001	58.2947
3.96697	58.2926
3.96394	58.3049
3.96091	58.3064
3.95789	58.2424
3.95487	58.1956
3.95186	58.225
3.94885	58.2506
3.94584	58.2762
3.94284	58.2751
3.93984	58.2749
3.93685	58.2462
3.93386	58.1802
3.93088	58.1716
3.9279	58.2047
3.92493	58.2286
3.92196	58.2602
3.919	58.2716
3.91604	58.1937
3.91308	58.1376
3.91013	58.1573
3.90718	58.132
3.90424	58.1245
3.9013	58.1157
3.89837	58.0925
3.89544	58.0848
3.89252	58.0532
3.8896	57.9968
3.88668	57.9474
3.88377	57.9058
3.88086	57.936
3.87796	57.8952
3.87506	57.8287
3.87217	57.8049
3.86928	57.7411
3.86639	57.7427
3.86351	57.7387
3.86064	57.7349
3.85776	57.6837
3.8549	57.6364
3.85203	57.574
3.84917	57.4542
3.84631	57.432
3.84346	57.4974
3.84062	57.418
3.83777	57.2867
3.83494	57.2678
3.8321	57.2236
3.82927	57.1939
3.82644	57.1342
3.82362	57.0624
3.82081	57.0374
3.81799	57.023
3.81518	56.9439
3.81238	56.9001
3.80958	56.8181
3.80678	56.7623
3.80399	56.7417
3.8012	56.7246
3.79841	56.736
3.79563	56.6856
3.79286	56.6192
3.79008	56.6084
3.78731	56.599
3.78455	56.5786
3.78179	56.5735
3.77903	56.5572
3.77628	56.5291
3.77353	56.4174
3.77079	56.3327
3.76805	56.3498
3.76531	56.3333
3.76258	56.3177
3.75985	56.3019
3.75713	56.2255
3.7544	56.1461
3.75169	56.0879
3.74898	56.0893
3.74627	56.0327
3.74356	55.9688
3.74086	55.9445
3.73816	55.9399
3.73547	55.8339
3.73278	55.759
3.7301	55.7429
3.72741	55.6918
3.72474	55.602
3.72206	55.4668
3.71939	55.4114
3.71673	55.3732
3.71406	55.3103
3.71141	55.2106
3.70875	55.1044
3.7061	55.0071
3.70345	54.8772
3.70081	54.8051
3.69817	54.8259
3.69553	54.7249
3.6929	54.7275
3.69027	54.7728
3.68765	54.7348
3.68503	54.6556
3.68241	54.5651
3.6798	54.5262
3.67719	54.4661
3.67458	54.4173
3.67198	54.365
3.66938	54.3142
3.66678	54.241
3.66419	54.1425
3.66161	54.1088
3.65902	54.0677
3.65644	53.9406
3.65387	53.8398
3.65129	53.8182
3.64872	53.7375
3.64616	53.6307
3.64359	53.5973
3.64103	53.5137
3.63848	53.4076
3.63593	53.3678
3.63338	53.3442
3.63084	53.2997
3.6283	53.1628
3.62576	53.0297
3.62322	52.9295
3.62069	52.8681
3.61817	52.7497
3.61564	52.5972
3.61312	52.4957
3.61061	52.405
3.6081	52.3178
3.60559	52.2345
3.60308	52.1682
3.60058	52.0545
3.59808	51.845
3.59558	51.7001
3.59309	51.5234
3.59061	51.3378
3.58812	51.2355
3.58564	51.069
3.58316	50.7952
3.58069	50.6115
3.57822	50.4678
3.57575	50.3228
3.57328	50.0901
3.57082	49.9481
3.56836	49.914
3.56591	49.8276
3.56346	49.7482
3.56101	49.7636
3.55857	49.755
3.55613	49.6634
3.55369	49.6278
3.55126	49.6295
3.54883	49.5411
3.5464	49.4485
3.54397	49.2772
3.54155	49.1619
3.53914	49.1877
3.53672	49.0777
3.53431	48.9266
3.5319	48.7989
3.5295	48.6456
3.5271	48.4572
3.5247	48.2841
3.52231	48.1037
3.51991	47.9932
3.51753	47.9606
3.51514	47.8632
3.51276	47.6751
3.51038	47.5493
3.50801	47.4082
3.50563	47.2393
3.50327	47.1127
3.5009	47.0126
3.49854	46.957
3.49618	46.8299
3.49382	46.6209
3.49147	46.5939
3.48912	46.5884
3.48677	46.3952
3.48443	46.2453
3.48209	46.1337
3.47975	46.01
3.47742	45.9247
3.47509	45.8119
3.47276	45.699
3.47044	45.612
3.46812	45.5546
3.4658	45.4933
3.46348	45.303
3.46117	45.2092
3.45886	45.213
3.45656	45.0731
3.45425	44.8813
3.45195	44.8275
3.44966	44.7731
3.44736	44.5644
3.44507	44.3392
3.44279	44.2858
3.4405	44.252
3.43822	44.0476
3.43594	43.9484
3.43367	43.9212
3.43139	43.774
3.42912	43.5655
3.42686	43.4069
3.42459	43.3602
3.42233	43.2259
3.42007	42.9971
3.41782	42.8134
3.41557	42.7006
3.41332	42.6487
3.41108	42.5775
3.40883	42.472
3.40659	42.3984
3.40435	42.3267
3.40212	42.1872
3.39989	42.0123
3.39766	41.936
3.39544	41.9289
3.39322	41.8625
3.391	41.7675
3.38878	41.6668
3.38657	41.4895
3.38436	41.2594
3.38215	41.1392
3.37994	41.1233
3.37774	41.0115
3.37554	40.881
3.37335	40.7855
3.37115	40.7006
3.36896	40.6453
3.36678	40.5746
3.36459	40.3828
3.36241	40.2012
3.36023	40.0005
3.35805	39.8146
3.35588	39.7379
3.35371	39.7336
3.35154	39.6207
3.34938	39.4426
3.34721	39.295
3.34505	39.1596
3.3429	38.9663
3.34074	38.7565
3.33859	38.5512
3.33644	38.4333
3.3343	38.3919
3.33215	38.3526
3.33001	38.2633
3.32788	38.1023
3.32574	37.9335
3.32361	37.8064
3.32148	37.7074
3.31936	37.6704
3.31723	37.5836
3.31511	37.3553
3.31299	37.2423
3.31088	37.156
3.30876	37.0023
3.30665	36.786
3.30455	36.6709
3.30244	36.5626
3.30034	36.4349
3.29824	36.3049
3.29614	36.151
3.29405	35.9759
3.29196	35.8063
3.28987	35.7729
3.28778	35.6736
3.2857	35.5106
3.28362	35.2773
3.28154	35.0422
3.27946	34.8099
3.27739	34.6771
3.27532	34.5852
3.27325	34.4579
3.27119	34.3858
3.26913	34.2762
3.26707	34.053
3.26501	33.8745
3.26295	33.7418
3.2609	33.6183
3.25885	33.5784
3.2568	33.4568
3.25476	33.3234
3.25272	33.1225
3.25068	32.8786
3.24864	32.8277
3.24661	32.7754
3.24458	32.595
3.24255	32.4021
3.24052	32.2656
3.2385	32.1216
3.23648	31.9616
3.23446	31.7302
3.23244	31.5457
3.23043	31.4778
3.22841	31.3092
3.2264	31.048
3.2244	30.8534
3.22239	30.6339
3.22039	30.4456
3.21839	30.255
3.2164	30.0096
3.2144	29.6741
3.21241	29.3917
3.21042	29.2738
3.20844	29.1598
3.20645	29.0014
3.20447	28.7952
3.20249	28.565
3.20051	28.3425
3.19854	28.1187
3.19657	27.9509
3.1946	27.7741
3.19263	27.4964
3.19067	27.2793
3.1887	27.0763
3.18674	26.8291
3.18479	26.5878
3.18283	26.3385
3.18088	26.0747
3.17893	25.8656
3.17698	25.7054
3.17504	25.5532
3.17309	25.2688
3.17115	24.9932
3.16921	24.7964
3.16728	24.5625
3.16534	24.3102
3.16341	24.0963
3.16148	23.8725
3.15956	23.6724
3.15763	23.422
3.15571	23.2767
3.15379	23.0992
3.15187	22.8783
3.14996	22.6096
3.14805	22.3318
3.14614	22.0794
3.14423	21.8518
3.14232	21.6283
3.14042	21.4307
3.13852	21.2109
3.13662	20.9861
3.13472	20.7433
3.13283	20.5467
3.13094	20.3211
3.12905	20.0938
3.12716	19.8995
3.12528	19.6821
3.12339	19.4748
3.12151	19.2834
3.11964	19.0975
3.11776	18.8786
3.11589	18.6678
3.11401	18.4303
3.11214	18.2297
3.11028	18.0542
3.10841	17.7606
3.10655	17.4512
3.10469	17.202
3.10283	16.9471
3.10098	16.6556
3.09912	16.477
3.09727	16.3006
3.09542	16.2191
3.09358	16.0496
3.09173	15.7748
3.08989	15.5727
3.08805	15.4166
3.08621	15.1697
3.08437	14.9712
3.08254	14.7768
3.08071	14.4995
3.07888	14.3265
3.07705	14.1463
3.07523	13.8701
3.0734	13.5948
3.07158	13.4
3.06977	13.3247
3.06795	13.135
3.06613	12.9184
3.06432	12.7043
3.06251	12.6171
3.0607	12.5036
3.0589	12.2173
3.0571	11.9675
3.05529	11.8388
3.05349	11.7835
3.0517	11.6408
3.0499	11.3826
3.04811	11.1608
3.04632	10.9734
3.04453	10.8007
3.04274	10.7219
3.04096	10.632
3.03918	10.5133
3.0374	10.4167
3.03562	10.1948
3.03384	9.98045
3.03207	9.86509
3.03029	9.75399
3.02852	9.71355
3.02676	9.62967
3.02499	9.52318
3.02323	9.32679
3.02146	9.11572
3.0197	8.96405
3.01795	8.72136
3.01619	8.63604
3.01444	8.47891
3.01269	8.34505
3.01094	8.2532
3.00919	8.26181
3.00744	8.26429
3.0057	8.09019
3.00396	7.90305
3.00222	7.78735
3.00048	7.68383
2.99875	7.63283
2.99701	7.46102
2.99528	7.32064
2.99355	7.16321
2.99183	7.05016
2.9901	7.08687
2.98838	7.05308
2.98666	6.9685
2.98494	6.7878
2.98322	6.69134
2.9815	6.6991
2.97979	6.62121
2.97808	6.40381
2.97637	6.21619
2.97466	6.1883
2.97295	6.2621
2.97125	6.20276
2.96955	6.1785
2.96785	6.18825
2.96615	6.03477
2.96446	5.92197
2.96276	5.84318
2.96107	5.76925
2.95938	5.74797
2.95769	5.78477
2.95601	5.76816
2.95432	5.81604
2.95264	5.67392
2.95096	5.42424
2.94928	5.43297
2.9476	5.54179
2.94593	5.50206
2.94425	5.46197
2.94258	5.32595
2.94092	5.21955
2.93925	5.2201
2.93758	5.19007
2.93592	5.22628
2.93426	5.12045
2.9326	5.17883
2.93094	5.26059
2.92928	5.06136
2.92763	4.82255
2.92598	4.75267
2.92433	4.86195
2.92268	4.86614
2.92103	4.83093
2.91939	5.00094
2.91775	5.03609
2.9161	5.03958
2.91447	5.17581
2.91283	5.18827
2.91119	5.01584
2.90956	4.90062
2.90793	5.0235
2.9063	5.07012
2.90467	5.10109
2.90304	5.20784
2.90142	5.2401
2.89979	5.35308
2.89817	5.46072
2.89656	5.51285
2.89494	5.49078
2.89332	5.51414
2.89171	5.54622
2.8901	5.60684
2.88849	5.62613
2.88688	5.62135
2.88527	5.61281
2.88367	5.66086
2.88206	5.74721
2.88046	5.87371
2.87886	5.91819
2.87727	5.90966
2.87567	6.0247
2.87408	6.16846
2.87248	6.12828
2.87089	6.06214
2.8693	6.17946
2.86772	6.22102
2.86613	6.17829
2.86455	6.18512
2.86297	6.15261
2.86139	6.07872
2.85981	5.95894
2.85823	5.8784
2.85666	5.92848
2.85508	6.06231
2.85351	6.07798
2.85194	5.97874
2.85038	5.84606
2.84881	5.80403
2.84724	5.76612
2.84568	5.71362
2.84412	5.60122
2.84256	5.49586
2.841	5.53722
2.83945	5.43134
2.83789	5.30818
2.83634	5.29139
2.83479	5.28922
2.83324	5.27636
2.83169	5.23749
2.83015	5.10782
2.82861	5.03746
2.82706	5.07358
2.82552	5.03721
2.82398	5.04076
2.82245	4.9467
2.82091	4.91602
2.81938	4.81902
2.81784	4.61161
2.81631	4.62539
2.81479	4.68286
2.81326	4.70256
2.81173	4.73012
2.81021	4.59994
2.80869	4.48629
2.80716	4.53284
2.80565	4.64736
2.80413	4.58976
2.80261	4.53618
2.8011	4.4987
2.79959	4.3952
2.79808	4.38742
2.79657	4.45028
2.79506	4.51123
2.79355	4.63803
2.79205	4.79803
2.79055	4.85247
2.78904	4.84145
2.78754	4.79391
2.78605	4.85907
2.78455	4.94209
2.78306	4.95707
2.78156	5.19784
2.78007	5.52906
2.77858	5.51162
2.77709	5.70228
2.77561	5.92579
2.77412	6.04382
2.77264	6.17898
2.77116	6.45847
2.76968	6.70834
2.7682	6.85222
2.76672	7.09688
2.76524	7.37041
2.76377	7.53618
2.7623	7.68016
2.76083	7.80842
2.75936	7.96756
2.75789	8.36281
2.75642	8.72286
2.75496	8.82044
2.7535	8.75879
2.75203	8.80186
2.75057	8.87899
2.74912	9.03739
2.74766	9.37399
2.7462	9.79938
2.74475	9.97975
2.7433	10.1363
2.74185	10.3569
2.7404	10.7316
2.73895	11.0588
2.7375	11.1427
2.73606	11.4005
2.73462	11.4887
2.73318	11.3787
2.73174	11.5065
2.7303	11.6122
2.72886	11.7012
2.72742	11.7752
2.72599	11.9722
2.72456	12.0524
2.72313	11.8551
2.7217	11.8026
2.72027	11.8384
2.71884	11.722
2.71742	11.8337
2.71599	12.105
2.71457	12.6106
2.71315	13.3875
2.71173	14.9264
2.71032	17.1384
2.7089	20.0564
2.70748	24.0549
2.70607	28.706
2.70466	33.2921
2.70325	36.9284
2.70184	39.5578
2.70043	41.1939
2.69903	42.2564
2.69762	43.2868
2.69622	44.5476
2.69482	45.873
2.69342	46.8955
2.69202	47.4653
2.69062	48.2075
2.68923	49.0872
2.68783	49.8152
2.68644	50.5715
2.68505	51.2957
2.68366	51.9705
2.68227	52.4117
2.68089	52.944
2.6795	53.7726
2.67812	54.4004
2.67673	55.0774
2.67535	55.2464
2.67397	55.2859
2.6726	55.77
2.67122	56.8926
2.66984	57.2971
2.66847	56.8274
2.6671	57.4189
2.66572	57.7543
2.66435	57.5572
2.66299	57.1049
2.66162	57.1273
2.66025	57.3028
2.65889	57.421
2.65753	57.365
2.65616	57.5417
2.65481	57.5045
2.65345	57.6414
2.65209	57.8211
2.65073	57.6762
2.64938	57.5569
2.64803	57.6635
2.64667	57.8805
2.64532	58.1143
2.64397	58.0365
2.64263	58.0095
2.64128	58.048
2.63994	58.1439
2.63859	58.1557
2.63725	58.1743
2.63591	58.2293
2.63457	58.4914
2.63323	58.5914
2.6319	58.8325
2.63056	59.2773
2.62923	58.8463
2.62789	58.6714
2.62656	58.9686
2.62523	58.6227
2.6239	58.3686
2.62258	58.3341
2.62125	58.7559
2.61993	58.7599
2.6186	58.3999
2.61728	58.6953
2.61596	58.5721
2.61464	58.2026
2.61332	58.0769
2.61201	57.8504
2.61069	57.9428
2.60938	57.9944
2.60807	57.9663
2.60675	58.2605
2.60544	58.4541
2.60414	57.9039
2.60283	57.5657
2.60152	57.4002
2.60022	57.1461
2.59891	57.0027
2.59761	57.1403
2.59631	57.761
2.59501	58.6265
2.59371	57.9852
2.59242	57.0156
2.59112	56.7116
2.58983	56.7303
2.58853	56.7816
2.58724	56.8719
2.58595	56.7779
2.58466	56.9792
2.58338	56.9374
2.58209	56.565
2.5808	56.4429
2.57952	56.1356
2.57824	56.1205
2.57695	56.3017
2.57567	56.1883
2.5744	56.2487
2.57312	56.3604
2.57184	56.095
2.57057	56.2895
2.56929	56.3924
2.56802	56.1597
2.56675	55.9785
2.56548	56.197
2.56421	56.4896
2.56294	56.5544
2.56168	56.6222
2.56041	56.5202
2.55915	56.2936
2.55789	56.3064
2.55662	56.3412
2.55536	56.4109
2.5541	56.4839
2.55285	56.5805
2.55159	56.6178
2.55034	56.6897
2.54908	56.777
2.54783	56.8289
2.54658	56.8917
2.54533	56.9475
2.54408	57.0228
2.54283	57.1097
2.54159	57.0505
2.54034	56.9805
2.5391	56.8893
2.53785	56.8408
2.53661	56.9953
2.53537	57.0835
2.53413	57.1274
2.53289	57.1873
2.53166	57.1467
2.53042	57.134
2.52919	57.1219
2.52795	57.081
2.52672	57.0545
2.52549	56.992
2.52426	57.0396
2.52303	57.1145
2.52181	57.0774
2.52058	57.1476
2.51936	57.1894
2.51813	57.1077
2.51691	57.1219
2.51569	57.1939
2.51447	57.2753
2.51325	57.2694
2.51203	57.1871
2.51082	57.1674
2.5096	57.1977
2.50839	57.3047
2.50717	57.2839
2.50596	57.2369
2.50475	57.3259
2.50354	57.3457
2.50233	57.2959
2.50113	57.333
2.49992	57.3533
2.49872	57.2412
2.49751	57.1879
2.49631	57.2056
2.49511	57.3001
2.49391	57.2497
2.49271	57.2383
2.49151	57.3268
2.49031	57.2847
2.48912	57.338
2.48792	57.3883
2.48673	57.3325
2.48554	57.357
2.48435	57.4276
2.48316	57.444
2.48197	57.3207
2.48078	57.2178
2.4796	57.2036
2.47841	57.1711
2.47723	57.1349
2.47604	57.1117
2.47486	57.1246
2.47368	57.1621
2.4725	57.2755
2.47132	57.3932
2.47014	57.4009
2.46897	57.3868
2.46779	57.4455
2.46662	57.5581
2.46545	57.6162
2.46427	57.775
2.4631	57.9761
2.46193	58.1067
2.46077	58.3344
2.4596	58.5519
2.45843	58.68
2.45727	58.8228
2.4561	59.0019
2.45494	59.2233
2.45378	59.3446
2.45262	59.5535
2.45146	59.7642
2.4503	59.8344
2.44914	60.0049
2.44799	60.2394
2.44683	60.5553
2.44568	60.7724
2.44452	60.865
2.44337	60.9293
2.44222	60.9945
2.44107	61.0037
2.43992	61.0275
2.43877	61.1736
2.43763	61.2424
2.43648	61.3942
2.43534	61.6094
2.43419	61.635
2.43305	61.6607
2.43191	61.8463
2.43077	62.0086
2.42963	62.0735
2.42849	62.1795
2.42736	62.3534
2.42622	62.443
2.42509	62.5492
2.42395	62.716
2.42282	62.7803
2.42169	62.9795
2.42056	63.2471
2.41943	63.3633
2.4183	63.4433
2.41717	63.3779
2.41605	63.2559
2.41492	63.377
2.4138	63.4687
2.41267	63.3307
2.41155	63.1408
2.41043	63.0477
2.40931	62.981
2.40819	62.8125
2.40707	62.5595
2.40595	62.3692
2.40484	62.1803
2.40372	61.9407
2.40261	61.6775
2.4015	61.4235
2.40039	61.2544
2.39928	61.2107
2.39817	61.0677
2.39706	60.8194
2.39595	60.6618
2.39484	60.4492
2.39374	60.295
2.39263	60.2315
2.39153	60.1158
2.39043	60.0077
2.38932	60.0785
2.38822	60.1634
2.38712	60.1773
2.38603	60.2246
2.38493	60.2367
2.38383	60.2293
2.38274	60.1667
2.38164	60.1767
2.38055	60.2855
2.37946	60.3173
2.37836	60.3567
2.37727	60.4398
2.37618	60.3631
2.3751	60.1892
2.37401	60.027
2.37292	59.9286
2.37184	59.8458
2.37075	59.7573
2.36967	59.5773
2.36859	59.3835
2.3675	59.2179
2.36642	58.9264
2.36534	58.5446
2.36427	58.225
2.36319	57.9884
2.36211	57.7939
2.36104	57.6641
2.35996	57.3761
2.35889	57.0089
2.35781	56.6547
2.35674	56.3934
2.35567	56.2382
2.3546	56.145
2.35353	56.0849
2.35247	55.8659
2.3514	55.5387
2.35033	55.2689
2.34927	55.1197
2.3482	54.781
2.34714	54.4646
2.34608	54.3232
2.34502	54.1808
2.34396	53.9936
2.3429	53.7368
2.34184	53.5652
2.34078	53.4345
2.33973	53.3545
2.33867	53.184
2.33762	52.9417
2.33656	52.7898
2.33551	52.7685
2.33446	52.8038
2.33341	52.655
2.33236	52.5841
2.33131	52.5932
2.33026	52.5038
2.32922	52.4514
2.32817	52.4165
2.32712	52.4756
2.32608	52.5387
2.32504	52.6062
2.324	52.8193
2.32295	52.9678
2.32191	53.048
2.32087	53.2115
2.31984	53.3179
2.3188	53.5333
2.31776	53.8198
2.31673	54.0552
2.31569	54.2646
2.31466	54.4578
2.31362	54.8163
2.31259	55.1926
2.31156	55.3104
2.31053	55.4341
2.3095	55.6864
2.30847	55.843
2.30745	56.0027
2.30642	56.2996
2.3054	56.4454
2.30437	56.4645
2.30335	56.4299
2.30232	56.2498
2.3013	56.1307
2.30028	56.1133
2.29926	56.1821
2.29824	56.3685
2.29722	56.4747
2.29621	56.4094
2.29519	56.5371
2.29417	56.7456
2.29316	56.9881
2.29215	57.258
2.29113	57.3736
2.29012	57.6928
2.28911	58.1451
2.2881	58.5405
2.28709	58.9313
2.28608	59.4319
2.28507	59.8801
2.28407	60.1757
2.28306	60.4521
2.28206	61.0107
2.28105	61.4522
2.28005	61.7232
2.27905	61.8453
2.27805	61.9958
2.27705	62.2092
2.27605	62.4143
2.27505	62.4822
2.27405	62.5092
2.27305	62.5159
2.27206	62.3841
2.27106	62.2976
2.27007	62.4376
2.26907	62.5311
2.26808	62.5099
2.26709	62.5078
2.2661	62.5627
2.26511	62.53
2.26412	62.4368
2.26313	62.3932
2.26214	62.2776
2.26116	62.1292
2.26017	62.1832
2.25919	62.2708
2.2582	62.2338
2.25722	62.2226
2.25624	62.137
2.25526	62.0584
2.25428	61.9815
2.2533	61.8008
2.25232	61.725
2.25134	61.7212
2.25036	61.7085
2.24939	61.6283
2.24841	61.505
2.24744	61.5356
2.24646	61.7817
2.24549	61.8517
2.24452	61.9964
2.24355	62.3843
2.24257	62.7555
2.24161	63.0228
2.24064	63.404
2.23967	63.8853
2.2387	64.3904
2.23774	64.9216
2.23677	65.4043
2.23581	65.8678
2.23484	66.4907
2.23388	67.1859
2.23292	67.6128
2.23196	67.8705
2.231	68.3652
2.23004	68.9183
2.22908	69.2805
2.22812	69.6212
2.22716	70.019
2.22621	70.2945
2.22525	70.59
2.2243	70.8811
2.22334	71.1575
2.22239	71.3771
2.22144	71.5711
2.22049	71.8431
2.21953	72.0517
2.21859	72.2351
2.21764	72.6478
2.21669	72.8589
2.21574	72.8038
2.21479	72.8855
2.21385	73.1048
2.2129	73.2473
2.21196	73.4383
2.21102	73.5497
2.21007	73.609
2.20913	73.7312
2.20819	73.9342
2.20725	74.1007
2.20631	74.2221
2.20537	74.4007
2.20444	74.6294
2.2035	74.6928
2.20256	74.6635
2.20163	74.8117
2.20069	74.7816
2.19976	74.8194
2.19883	75.064
2.19789	75.1617
2.19696	75.2656
2.19603	75.3071
2.1951	75.392
2.19417	75.385
2.19325	75.4534
2.19232	75.6259
2.19139	75.6896
2.19047	75.7548
2.18954	75.8555
2.18862	75.8589
2.18769	75.9811
2.18677	76.0676
2.18585	76.1408
2.18493	76.1637
2.18401	76.1719
2.18309	76.4065
2.18217	76.4777
2.18125	76.3782
2.18033	76.3907
2.17942	76.429
2.1785	76.4785
2.17759	76.7393
2.17667	76.9732
2.17576	77.0203
2.17485	77.0191
2.17393	76.9783
2.17302	76.9411
2.17211	76.849
2.1712	76.8922
2.17029	77.0297
2.16939	77.0925
2.16848	77.2707
2.16757	77.4138
2.16667	77.3133
2.16576	77.3277
2.16486	77.4507
2.16395	77.3974
2.16305	77.4389
2.16215	77.4494
2.16125	77.33
2.16035	77.308
2.15945	77.4257
2.15855	77.5192
2.15765	77.4243
2.15675	77.4407
2.15586	77.58
2.15496	77.6403
2.15406	77.5935
2.15317	77.6171
2.15228	77.6675
2.15138	77.8393
2.15049	77.8036
2.1496	77.6045
2.14871	77.6502
2.14782	77.7836
2.14693	77.8083
2.14604	77.729
2.14515	77.7454
2.14427	77.8131
2.14338	77.8963
2.14249	77.9595
2.14161	77.9577
2.14072	77.8926
2.13984	77.8379
2.13896	77.7519
2.13808	77.7272
2.13719	77.8342
2.13631	77.9485
2.13543	77.9788
2.13455	77.8732
2.13368	77.7845
2.1328	77.8004
2.13192	77.8184
2.13105	77.8326
2.13017	77.8199
2.1293	77.8621
2.12842	77.8009
2.12755	77.6561
2.12668	77.7009
2.1258	77.6702
2.12493	77.5541
2.12406	77.6598
2.12319	77.8859
2.12232	77.8806
2.12145	77.8669
2.12059	77.8955
2.11972	77.8571
2.11885	77.7244
2.11799	77.6602
2.11712	77.6617
2.11626	77.5736
2.1154	77.3701
2.11453	77.3729
2.11367	77.4322
2.11281	77.436
2.11195	77.7164
2.11109	77.8518
2.11023	77.8523
2.10937	77.7393
2.10851	77.6488
2.10766	77.7269
2.1068	77.7316
2.10594	77.7145
2.10509	77.8392
2.10423	77.9295
2.10338	77.8475
2.10253	77.754
2.10168	77.8594
2.10082	77.8469
2.09997	77.8678
2.09912	78.04
2.09827	78.0883
2.09742	78.1624
2.09658	78.163
2.09573	78.056
2.09488	78.1867
2.09404	78.3392
2.09319	78.3875
2.09235	78.3715
2.0915	78.4623
2.09066	78.4683
2.08982	78.3823
2.08897	78.2954
2.08813	78.2721
2.08729	78.3941
2.08645	78.6132
2.08561	78.6009
2.08477	78.4499
2.08394	78.2025
2.0831	78.1557
2.08226	78.3231
2.08143	78.5684
2.08059	78.4968
2.07976	78.2678
2.07892	78.419
2.07809	78.5427
2.07726	78.3942
2.07643	78.3253
2.07559	78.2924
2.07476	78.25
2.07393	78.141
2.0731	77.9885
2.07228	78.1118
2.07145	78.42
2.07062	78.3949
2.06979	78.1363
2.06897	77.9768
2.06814	78.1604
2.06732	78.2407
2.06649	78.2196
2.06567	78.3281
2.06485	78.2237
2.06403	78.042
2.0632	77.9905
2.06238	77.8592
2.06156	77.7434
2.06074	77.846
2.05993	77.8333
2.05911	77.844
2.05829	77.7263
2.05747	77.6083
2.05666	77.7235
2.05584	77.778
2.05503	77.6947
2.05421	77.6976
2.0534	77.5037
2.05259	77.3154
2.05177	77.514
2.05096	77.5896
2.05015	77.3895
2.04934	77.191
2.04853	77.1303
2.04772	77.1985
2.04691	77.1653
2.04611	76.923
2.0453	76.8258
2.04449	76.9086
2.04369	76.7806
2.04288	76.7595
2.04208	76.7035
2.04127	76.6232
2.04047	76.635
2.03967	76.6175
2.03886	76.5716
2.03806	76.4529
2.03726	76.3009
2.03646	76.187
2.03566	76.1864
2.03486	76.1733
2.03407	76.2212
2.03327	76.1752
2.03247	76.1312
2.03167	76.1906
2.03088	76.0256
2.03008	75.6741
2.02929	75.5157
2.0285	75.4181
2.0277	75.3356
2.02691	75.4786
2.02612	75.3816
2.02533	75.1606
2.02453	74.9729
2.02374	75.0201
2.02295	74.9945
2.02217	74.8758
2.02138	74.6964
2.02059	74.4413
2.0198	74.2761
2.01902	74.3357
2.01823	74.2613
2.01744	74.2266
2.01666	74.1661
2.01588	74.0951
2.01509	74.0174
2.01431	73.9832
2.01353	74.0035
2.01275	73.9506
2.01196	73.8079
2.01118	73.6865
2.0104	73.5696
2.00963	73.4331
2.00885	73.5705
2.00807	73.7057
2.00729	73.6681
2.00651	73.6063
2.00574	73.4909
2.00496	73.5241
2.00419	73.3284
2.00341	73.2755
2.00264	73.366
2.00187	73.2638
2.00109	73.067
2.00032	73.1109
