Name: Dolomite CaMg(CO_3)_2
Type: Mineral
Class: Carbonates
Subclass: 
Particle Size: 45-125um
Sample No.: C-5C
Owner: JPL
Wavelength range: IR
Origin: USA, California, Los Angeles County, Palos Verdes
Collected by Burminco
Description: 





Measurement: Hemispherical reflectance
First Column: X
Second Column: Y
X Units:  Wavelength (micrometers)
Y Units:  Reflectance (percent)
First X Value: 15.3853
Last X Value: 2.00032
Number of X Values: 2256
Additional information: c05ca.txt
 
15.3853	6.55227
15.3397	6.76737
15.2945	6.79316
15.2495	6.68573
15.2048	6.89514
15.1603	7.35819
15.1161	7.50456
15.0722	7.34877
15.0285	7.45018
14.9851	7.84617
14.9419	7.8878
14.8989	7.98736
14.8563	8.15142
14.8138	8.2436
14.7716	8.56533
14.7296	8.76894
14.6879	8.73141
14.6464	8.95142
14.6052	9.19966
14.5641	9.25957
14.5233	9.11623
14.4828	8.98637
14.4424	8.96347
14.4023	9.00851
14.3624	9.02316
14.3227	8.88022
14.2833	8.51524
14.244	8.32199
14.205	8.06261
14.1662	7.69766
14.1276	7.07665
14.0892	6.39004
14.051	5.86408
14.0131	5.35133
13.9753	4.86631
13.9377	4.37967
13.9004	3.8762
13.8632	3.57632
13.8262	3.55022
13.7895	3.74549
13.7529	4.11525
13.7165	3.98156
13.6803	2.81529
13.6443	1.66146
13.6085	1.44753
13.5729	1.80969
13.5374	2.58267
13.5022	3.8303
13.4671	5.11557
13.4322	6.42848
13.3975	7.84443
13.363	9.321
13.3286	10.8023
13.2944	12.3671
13.2604	13.9376
13.2266	15.697
13.193	17.2782
13.1595	18.2718
13.1262	19.1893
13.093	20.1483
13.06	21.0992
13.0272	21.9804
12.9946	22.6614
12.9621	23.1118
12.9298	23.6977
12.8976	24.2212
12.8656	24.2829
12.8337	24.273
12.8021	24.4885
12.7705	24.7975
12.7391	25.133
12.7079	25.4787
12.6769	25.736
12.6459	26.1503
12.6152	26.4182
12.5845	26.5494
12.5541	26.7009
12.5238	26.8511
12.4936	27.0834
12.4635	27.1925
12.4337	27.1285
12.4039	27.0923
12.3743	27.0767
12.3448	26.993
12.3155	27.093
12.2863	27.1179
12.2573	27.0056
12.2284	26.822
12.1996	26.5522
12.171	26.163
12.1425	25.9735
12.1141	25.9209
12.0859	25.4381
12.0578	24.9301
12.0298	24.5216
12.0019	23.9132
11.9742	23.4082
11.9466	22.898
11.9192	22.1049
11.8918	21.3294
11.8646	20.391
11.8375	18.934
11.8106	16.7772
11.7837	13.79
11.757	10.5432
11.7304	8.27878
11.7039	8.80358
11.6776	11.1087
11.6513	12.0463
11.6252	11.6397
11.5992	10.7735
11.5733	9.85402
11.5475	9.10036
11.5219	8.62327
11.4963	8.34253
11.4709	8.28552
11.4455	8.39437
11.4203	8.6227
11.3952	9.38639
11.3702	11.098
11.3454	13.7692
11.3206	17.352
11.2959	21.1986
11.2714	24.4999
11.2469	27.3827
11.2226	29.9758
11.1983	32.0656
11.1742	33.3547
11.1502	32.795
11.1263	28.3661
11.1024	22.4091
11.0787	18.8895
11.0551	17.2946
11.0316	16.6472
11.0081	16.5082
10.9848	16.5806
10.9616	16.7677
10.9385	16.981
10.9154	17.1469
10.8925	17.2245
10.8697	17.3086
10.8469	17.4411
10.8243	17.5204
10.8017	17.6009
10.7793	17.6634
10.7569	17.805
10.7346	17.9538
10.7125	18.1318
10.6904	18.2485
10.6684	18.3843
10.6465	18.5161
10.6247	18.5026
10.6029	18.3042
10.5813	18.2072
10.5597	18.1932
10.5383	18.2308
10.5169	18.2831
10.4956	18.3159
10.4744	18.4541
10.4533	18.7259
10.4323	18.9181
10.4113	19.1059
10.3904	19.0379
10.3697	18.7309
10.349	18.4201
10.3284	18.2694
10.3078	18.1001
10.2874	17.9167
10.267	17.8313
10.2467	17.8325
10.2265	17.8894
10.2064	17.8908
10.1863	17.8304
10.1663	17.8814
10.1464	17.9021
10.1266	17.8639
10.1069	17.6361
10.0872	17.3357
10.0676	17.2245
10.0481	17.2057
10.0287	17.2644
10.0093	17.4066
9.99005	17.4486
9.97084	17.3783
9.95169	17.2062
9.93263	16.8544
9.91364	16.5675
9.89472	16.5694
9.87587	16.5188
9.8571	16.3681
9.83839	16.1841
9.81976	15.9655
9.80119	15.5133
9.78271	14.8343
9.76428	13.9998
9.74592	13.3401
9.72764	12.8826
9.70943	12.4913
9.69128	12.0169
9.6732	11.5693
9.65518	11.2836
9.63724	11.0238
9.61935	11.1626
9.60155	11.8032
9.5838	12.4602
9.56611	13.1348
9.5485	13.9102
9.53094	14.7706
9.51345	15.3355
9.49604	15.579
9.47867	15.6379
9.46137	15.4514
9.44414	15.1326
9.42697	14.8245
9.40986	14.4605
9.39281	14.0089
9.37583	13.2641
9.35891	12.4935
9.34204	11.8197
9.32524	11.1173
9.3085	10.5902
9.29182	10.1048
9.27519	9.83572
9.25863	10.0075
9.24213	10.3111
9.22568	10.395
9.2093	10.1802
9.19297	9.85217
9.17669	9.58279
9.16048	9.41738
9.14433	9.14948
9.12823	8.38945
9.11218	7.29368
9.0962	6.74603
9.08027	7.1217
9.06439	8.27401
9.04858	9.41129
9.03281	10.1314
9.0171	10.3839
9.00145	10.1947
8.98585	9.95997
8.9703	10.0315
8.9548	10.2075
8.93937	10.2942
8.92398	10.1868
8.90865	10.0693
8.89337	10.0364
8.87814	10.0189
8.86296	9.97891
8.84784	10.0815
8.83277	10.2789
8.81774	10.3418
8.80277	10.275
8.78786	10.1547
8.77298	9.83043
8.75816	9.47355
8.7434	9.18668
8.72868	8.95184
8.714	8.81207
8.69938	8.84215
8.68481	9.03209
8.67029	9.19219
8.65581	9.25022
8.64139	9.15317
8.62701	9.21826
8.61268	9.32336
8.5984	9.1932
8.58416	8.95463
8.56997	8.69422
8.55583	8.54389
8.54174	8.27747
8.52769	8.05276
8.51368	7.92151
8.49973	7.78319
8.48582	7.51701
8.47195	7.27357
8.45813	7.0387
8.44436	6.94344
8.43062	6.84562
8.41693	6.81179
8.4033	6.8707
8.3897	6.89923
8.37614	6.92029
8.36264	7.07183
8.34917	7.21812
8.33574	7.37569
8.32236	7.70349
8.30903	8.0772
8.29573	8.24632
8.28248	8.23217
8.26927	8.20809
8.2561	8.28271
8.24298	8.36875
8.2299	8.29177
8.21685	8.14906
8.20385	7.97451
8.19089	7.6883
8.17797	7.27883
8.16509	7.03241
8.15225	6.9509
8.13946	6.83244
8.1267	6.70006
8.11398	6.60065
8.10131	6.63967
8.08867	6.73991
8.07606	6.8328
8.0635	6.92509
8.05099	7.02917
8.0385	7.16279
8.02606	7.28705
8.01366	7.3745
8.00129	7.32483
7.98896	7.1906
7.97667	7.26618
7.96442	7.36486
7.9522	7.41272
7.94002	7.4396
7.92788	7.50769
7.91578	7.52476
7.90371	7.50888
7.89168	7.59284
7.87969	7.66953
7.86773	7.57091
7.85581	7.63074
7.84392	7.72637
7.83207	7.71113
7.82026	7.62532
7.80849	7.53654
7.79674	7.39691
7.78503	7.29605
7.77337	7.21538
7.76173	7.09215
7.75012	6.96898
7.73856	6.94039
7.72703	6.99068
7.71553	7.00185
7.70406	6.89098
7.69263	6.8808
7.68123	6.9346
7.66987	7.00912
7.65855	7.08464
7.64725	7.20945
7.63598	7.38536
7.62475	7.44047
7.61356	7.46922
7.60239	7.42825
7.59126	7.41198
7.58017	7.43259
7.5691	7.43952
7.55806	7.48573
7.54707	7.52444
7.5361	7.48505
7.52516	7.45485
7.51425	7.42659
7.50338	7.43749
7.49253	7.45967
7.48172	7.43853
7.47094	7.46855
7.46019	7.51177
7.44947	7.64208
7.43879	7.74004
7.42813	7.7867
7.4175	7.89008
7.4069	7.94358
7.39634	8.05716
7.3858	8.19053
7.37529	8.16746
7.36482	8.19637
7.35437	8.32702
7.34396	8.45055
7.33357	8.53344
7.32321	8.69742
7.31288	8.85562
7.30258	8.92773
7.29231	9.00994
7.28207	9.09432
7.27185	9.23941
7.26167	9.4058
7.25152	9.517
7.24139	9.68253
7.23129	9.90001
7.22122	10.1191
7.21117	10.289
7.20116	10.4886
7.19117	10.7608
7.18121	11.1166
7.17128	11.4878
7.16137	11.8152
7.1515	12.0743
7.14164	12.43
7.13182	12.9246
7.12203	13.4766
7.11225	13.8991
7.10251	14.2314
7.0928	14.5585
7.08311	15.0408
7.07344	15.8535
7.06381	17.0109
7.0542	18.3911
7.04461	19.9283
7.03506	21.3881
7.02552	22.5051
7.01601	23.2893
7.00653	23.785
6.99708	24.0164
6.98765	24.106
6.97824	24.2197
6.96886	24.4834
6.95951	24.6489
6.95018	24.6371
6.94087	24.6498
6.9316	24.7
6.92234	24.8015
6.91311	24.9783
6.90391	25.1702
6.89473	25.3404
6.88557	25.5217
6.87644	25.7471
6.86733	26.0724
6.85824	26.2208
6.84918	26.31
6.84015	26.4879
6.83114	26.8034
6.82215	27.073
6.81319	27.2588
6.80424	27.5779
6.79532	28.029
6.78643	28.2219
6.77756	28.3308
6.76871	28.5507
6.75989	28.7791
6.75109	29.057
6.74231	29.3745
6.73355	29.704
6.72482	30.1802
6.71611	30.7057
6.70742	31.0911
6.69875	31.4078
6.69011	31.9374
6.68149	32.5733
6.67289	33.1317
6.66431	33.8243
6.65576	34.6731
6.64722	35.8355
6.63871	37.2315
6.63022	38.1926
6.62175	38.9137
6.61331	39.7069
6.60488	40.3902
6.59648	41.0417
6.5881	41.6243
6.57974	42.2467
6.5714	42.749
6.56308	42.8855
6.55478	43.1337
6.54651	43.4037
6.53825	43.6754
6.53001	44.0098
6.5218	44.5658
6.51361	44.9083
6.50544	45.2792
6.49729	45.9763
6.48915	46.3303
6.48104	46.28
6.47295	46.3057
6.46488	46.4189
6.45683	46.5327
6.4488	46.5439
6.44079	46.4661
6.4328	46.42
6.42482	46.384
6.41687	46.448
6.40894	45.9562
6.40103	44.9399
6.39314	44.0283
6.38526	43.0557
6.37741	41.9595
6.36957	40.0768
6.36176	36.8852
6.35396	32.7284
6.34618	28.3631
6.33843	24.1911
6.33069	20.7594
6.32297	17.9403
6.31527	15.5214
6.30758	13.4631
6.29992	11.653
6.29227	9.93202
6.28465	8.5206
6.27704	7.40638
6.26945	6.51645
6.26188	5.72755
6.25432	5.06369
6.24679	4.42401
6.23927	3.90805
6.23177	3.44139
6.22429	3.03779
6.21683	2.73134
6.20938	2.529
6.20195	2.27531
6.19454	2.05824
6.18715	1.842
6.17978	1.70131
6.17242	1.49591
6.16508	1.32309
6.15776	1.22991
6.15045	1.05807
6.14317	0.879222
6.1359	0.830235
6.12864	0.766207
6.12141	0.638523
6.11419	0.594439
6.10699	0.581128
6.0998	0.559645
6.09263	0.546306
6.08549	0.488197
6.07835	0.471965
6.07123	0.518635
6.06413	0.597157
6.05705	0.543137
6.04998	0.482248
6.04293	0.58291
6.0359	0.659084
6.02888	0.590766
6.02187	0.569055
6.01489	0.61042
6.00792	0.710183
6.00096	0.777397
5.99403	0.709751
5.98711	0.690477
5.9802	0.797405
5.97331	0.867942
5.96644	0.925002
5.95958	0.929948
5.95274	0.945697
5.94591	0.985813
5.9391	1.02283
5.9323	1.11133
5.92552	1.15677
5.91876	1.196
5.91201	1.25467
5.90528	1.29874
5.89856	1.35458
5.89186	1.45682
5.88517	1.50293
5.8785	1.43741
5.87184	1.41084
5.8652	1.50502
5.85857	1.7307
5.85196	1.78612
5.84536	1.7253
5.83878	1.8184
5.83221	1.95627
5.82566	2.0021
5.81912	2.085
5.81259	2.07864
5.80608	2.10168
5.79959	2.08302
5.79311	2.11614
5.78665	2.23871
5.78019	2.267
5.77376	2.25847
5.76734	2.32744
5.76093	2.42238
5.75453	2.47196
5.74815	2.52438
5.74179	2.45261
5.73543	2.45426
5.7291	2.57154
5.72277	2.70852
5.71646	2.84414
5.71017	2.89602
5.70389	2.91383
5.69762	2.92911
5.69136	2.93762
5.68513	2.96236
5.6789	2.944
5.67268	2.98129
5.66648	3.06504
5.6603	3.04606
5.65413	2.9935
5.64797	2.88402
5.64182	2.82227
5.63569	2.81307
5.62957	2.78666
5.62347	2.7446
5.61737	2.74522
5.61129	2.63851
5.60522	2.55351
5.59917	2.4623
5.59313	2.37073
5.5871	2.27365
5.58109	2.1528
5.57509	2.06041
5.5691	2.01639
5.56312	1.87057
5.55716	1.71386
5.55121	1.62966
5.54528	1.55374
5.53935	1.38871
5.53344	1.27005
5.52754	1.23072
5.52166	1.21844
5.51578	1.19533
5.50992	1.15771
5.50407	1.1595
5.49823	1.16721
5.49241	1.18662
5.4866	1.20836
5.4808	1.18913
5.47501	1.2172
5.46923	1.39235
5.46347	1.69516
5.45772	2.07954
5.45198	2.57804
5.44625	3.18463
5.44054	3.91443
5.43484	4.78622
5.42914	5.71674
5.42347	6.67015
5.4178	7.63537
5.41214	8.53991
5.4065	9.42019
5.40087	10.3131
5.39525	11.163
5.38964	11.9054
5.38404	12.5621
5.37846	13.2311
5.37288	13.8496
5.36732	14.5298
5.36177	15.2649
5.35623	15.9127
5.35071	16.5006
5.34519	17.0723
5.33968	17.5442
5.33419	17.9523
5.32871	18.3645
5.32324	18.7507
5.31778	19.0441
5.31233	19.4425
5.30689	19.9198
5.30147	20.33
5.29605	20.8101
5.29065	21.3715
5.28525	21.9296
5.27987	22.5161
5.2745	23.132
5.26914	23.8723
5.26379	24.556
5.25845	25.3151
5.25312	26.0749
5.24781	26.8459
5.2425	27.6165
5.23721	28.4163
5.23192	29.2291
5.22665	29.8692
5.22138	30.4972
5.21613	31.2647
5.21089	31.9768
5.20566	32.5565
5.20044	33.1095
5.19522	33.6122
5.19002	34.1438
5.18483	34.7456
5.17965	35.3233
5.17448	35.9
5.16933	36.5621
5.16418	37.2388
5.15904	37.7967
5.15391	38.2827
5.14879	38.8497
5.14368	39.3478
5.13859	39.745
5.1335	40.097
5.12842	40.4244
5.12335	40.7078
5.1183	41.042
5.11325	41.329
5.10821	41.5025
5.10318	41.6171
5.09817	41.6125
5.09316	41.3978
5.08816	40.9468
5.08317	40.1735
5.07819	38.6803
5.07322	36.4327
5.06826	34.1414
5.06331	33.0711
5.05837	33.9902
5.05344	36.3662
5.04852	39.0228
5.04361	41.3519
5.03871	43.2631
5.03382	44.7888
5.02894	45.9531
5.02406	46.8094
5.0192	47.4464
5.01435	47.9131
5.0095	48.3032
5.00467	48.672
4.99984	48.9535
4.99502	49.1428
4.99021	49.3671
4.98542	49.5374
4.98063	49.7283
4.97585	50.0015
4.97108	50.3013
4.96632	50.4813
4.96156	50.5601
4.95682	50.6958
4.95209	50.8831
4.94736	51.0641
4.94264	51.1665
4.93794	51.2841
4.93324	51.4028
4.92855	51.5079
4.92387	51.591
4.9192	51.6826
4.91453	51.7595
4.90988	51.8252
4.90524	51.8643
4.9006	51.9176
4.89597	51.9615
4.89135	52.0409
4.88674	52.1536
4.88214	52.2316
4.87755	52.2745
4.87296	52.317
4.86839	52.3044
4.86382	52.2731
4.85926	52.2561
4.85471	52.3239
4.85017	52.3645
4.84564	52.299
4.84111	52.238
4.8366	52.2593
4.83209	52.265
4.82759	52.2439
4.8231	52.21
4.81862	52.1485
4.81415	52.1108
4.80968	52.0579
4.80522	51.9139
4.80077	51.8255
4.79633	51.7581
4.7919	51.7268
4.78747	51.6286
4.78306	51.4781
4.77865	51.3984
4.77425	51.3841
4.76986	51.1983
4.76547	50.9254
4.7611	50.7752
4.75673	50.6372
4.75237	50.39
4.74802	50.1378
4.74367	49.8488
4.73934	49.4991
4.73501	49.1132
4.73069	48.7085
4.72638	48.1695
4.72207	47.5492
4.71777	46.8786
4.71348	46.0726
4.7092	45.2043
4.70493	44.376
4.70066	43.4054
4.69641	42.2705
4.69216	41.1308
4.68791	39.8175
4.68368	38.2818
4.67945	36.5554
4.67523	34.6509
4.67102	32.671
4.66682	30.8001
4.66262	29.1268
4.65843	27.6741
4.65425	26.6122
4.65007	25.8229
4.64591	25.1132
4.64175	24.6143
4.6376	24.3474
4.63345	24.156
4.62932	23.9824
4.62519	23.8458
4.62106	23.7103
4.61695	23.6088
4.61284	23.7444
4.60874	24.0473
4.60465	24.4887
4.60056	25.0905
4.59648	25.8083
4.59241	26.6255
4.58835	27.5495
4.58429	28.4731
4.58024	29.3292
4.5762	30.1803
4.57216	30.9669
4.56814	31.6758
4.56411	32.3767
4.5601	33.0201
4.55609	33.662
4.55209	34.3167
4.5481	34.9379
4.54411	35.4612
4.54013	35.865
4.53616	36.2844
4.5322	36.7555
4.52824	37.2863
4.52429	37.6488
4.52034	38.0215
4.51641	38.6087
4.51247	39.3656
4.50855	40.3184
4.50463	41.4149
4.50072	42.4644
4.49682	43.4154
4.49292	44.0891
4.48903	44.4266
4.48515	44.5158
4.48127	44.3925
4.4774	44.0237
4.47354	43.4784
4.46968	42.7883
4.46584	41.9464
4.46199	41.0768
4.45815	40.1915
4.45432	39.2941
4.4505	38.5262
4.44668	38.0207
4.44287	37.7058
4.43907	37.5589
4.43527	37.5977
4.43148	37.8225
4.4277	38.2638
4.42392	38.8338
4.42015	39.5481
4.41638	40.3592
4.41262	41.1321
4.40887	41.9372
4.40513	42.7355
4.40139	43.4873
4.39765	44.2711
4.39393	45.0499
4.39021	45.7734
4.38649	46.4912
4.38278	47.1489
4.37908	47.7845
4.37539	48.3887
4.3717	48.8647
4.36801	49.3444
4.36434	49.8761
4.36067	50.2707
4.357	50.4597
4.35335	50.3108
4.34969	49.7363
4.34605	48.5991
4.34241	47.077
4.33877	45.7829
4.33514	44.9054
4.33152	44.1957
4.32791	43.6711
4.3243	43.2756
4.32069	42.8557
4.3171	42.3887
4.31351	41.9809
4.30992	41.6196
4.30634	41.4971
4.30277	41.5253
4.2992	41.4797
4.29564	41.4297
4.29208	41.3652
4.28853	41.1307
4.28499	40.8987
4.28145	40.8792
4.27792	41.0212
4.27439	41.3919
4.27087	41.8988
4.26735	42.4307
4.26384	42.9089
4.26034	43.2729
4.25684	43.6076
4.25335	43.8025
4.24986	43.8706
4.24638	43.7983
4.24291	43.6505
4.23944	43.6583
4.23598	43.8776
4.23252	44.0648
4.22906	44.162
4.22562	44.1107
4.22218	44.0278
4.21874	44.0111
4.21531	44.0839
4.21189	44.265
4.20847	44.658
4.20506	45.1419
4.20165	45.608
4.19825	45.8256
4.19485	45.7985
4.19146	45.7886
4.18807	45.6355
4.18469	45.3014
4.18132	45.031
4.17795	44.7111
4.17458	44.342
4.17123	43.9878
4.16787	43.5705
4.16453	43.0616
4.16118	42.5331
4.15785	41.9142
4.15451	41.2521
4.15119	40.6472
4.14787	40.3269
4.14455	40.3327
4.14124	40.3903
4.13794	40.3407
4.13464	40.2797
4.13134	40.2237
4.12805	40.0595
4.12477	39.9309
4.12149	39.802
4.11822	39.5303
4.11495	39.2239
4.11168	39.0067
4.10843	38.7023
4.10517	38.3345
4.10192	37.982
4.09868	37.5727
4.09545	37.1279
4.09221	36.5991
4.08899	36.0042
4.08576	35.346
4.08255	34.6045
4.07933	33.9676
4.07613	33.2951
4.07292	32.4378
4.06973	31.5556
4.06654	30.7319
4.06335	29.8672
4.06017	28.9296
4.05699	28.0141
4.05382	27.0409
4.05065	25.9508
4.04749	24.9331
4.04433	23.9251
4.04118	22.7881
4.03803	21.5811
4.03489	20.3604
4.03175	19.1373
4.02862	17.952
4.02549	16.72
4.02237	15.4282
4.01925	14.1324
4.01614	12.8925
4.01303	11.6897
4.00993	10.4396
4.00683	9.29842
4.00373	8.38248
4.00064	7.5752
3.99756	6.83769
3.99448	6.16729
3.9914	5.53823
3.98833	5.05605
3.98527	4.52341
3.98221	3.98857
3.97915	3.55722
3.9761	3.20119
3.97305	2.93755
3.97001	2.80467
3.96697	2.73091
3.96394	2.71212
3.96091	2.65882
3.95789	2.52745
3.95487	2.44079
3.95186	2.48225
3.94885	2.54589
3.94584	2.50447
3.94284	2.52204
3.93984	2.62596
3.93685	2.68929
3.93386	2.72561
3.93088	2.71355
3.9279	2.77639
3.92493	2.78454
3.92196	2.72423
3.919	2.77212
3.91604	2.81239
3.91308	2.9521
3.91013	3.13767
3.90718	3.23938
3.90424	3.42504
3.9013	3.70092
3.89837	3.93051
3.89544	4.16366
3.89252	4.24782
3.8896	4.30674
3.88668	4.26378
3.88377	4.279
3.88086	4.38116
3.87796	4.40584
3.87506	4.48398
3.87217	4.62804
3.86928	4.71444
3.86639	4.87112
3.86351	5.03656
3.86064	5.35681
3.85776	5.80454
3.8549	6.3673
3.85203	7.1948
3.84917	8.12406
3.84631	8.95172
3.84346	9.53146
3.84062	9.80568
3.83777	9.80789
3.83494	9.63916
3.8321	9.2264
3.82927	8.66763
3.82644	8.06702
3.82362	7.55102
3.82081	6.97661
3.81799	6.37836
3.81518	5.88094
3.81238	5.45767
3.80958	5.1181
3.80678	4.88565
3.80399	4.91041
3.8012	5.13124
3.79841	5.38232
3.79563	5.66147
3.79286	6.03098
3.79008	6.59204
3.78731	7.24538
3.78455	7.7922
3.78179	8.36
3.77903	9.10426
3.77628	9.94028
3.77353	10.7388
3.77079	11.5475
3.76805	12.493
3.76531	13.5386
3.76258	14.649
3.75985	15.9497
3.75713	17.391
3.7544	19.0517
3.75169	20.8547
3.74898	22.7505
3.74627	24.7689
3.74356	26.7872
3.74086	28.6258
3.73816	30.2486
3.73547	31.5341
3.73278	32.5473
3.7301	33.5085
3.72741	34.3541
3.72474	34.9704
3.72206	35.386
3.71939	35.8341
3.71673	36.3155
3.71406	36.7666
3.71141	37.1684
3.70875	37.5753
3.7061	38.0444
3.70345	38.4905
3.70081	38.8848
3.69817	39.3165
3.69553	39.789
3.6929	40.2914
3.69027	40.7675
3.68765	41.1457
3.68503	41.4756
3.68241	41.7839
3.6798	42.0277
3.67719	42.1719
3.67458	42.3129
3.67198	42.4408
3.66938	42.5467
3.66678	42.6566
3.66419	42.8018
3.66161	42.9636
3.65902	42.9374
3.65644	42.9288
3.65387	42.9736
3.65129	43.0343
3.64872	43.0327
3.64616	43.0429
3.64359	43.003
3.64103	42.9265
3.63848	42.916
3.63593	42.9392
3.63338	42.8026
3.63084	42.6817
3.6283	42.6349
3.62576	42.5613
3.62322	42.4361
3.62069	42.3082
3.61817	42.1592
3.61564	42.0641
3.61312	41.9602
3.61061	41.8045
3.6081	41.6432
3.60559	41.5024
3.60308	41.4552
3.60058	41.3524
3.59808	41.1859
3.59558	41.0155
3.59309	40.8808
3.59061	40.8006
3.58812	40.7041
3.58564	40.5374
3.58316	40.3291
3.58069	40.0251
3.57822	39.7141
3.57575	39.4195
3.57328	39.0176
3.57082	38.6442
3.56836	38.1688
3.56591	37.5285
3.56346	36.7315
3.56101	35.7406
3.55857	34.5768
3.55613	33.2169
3.55369	31.752
3.55126	30.4945
3.54883	29.7167
3.5464	29.6781
3.54397	29.9926
3.54155	30.3174
3.53914	30.4637
3.53672	30.1736
3.53431	29.5393
3.5319	28.781
3.5295	27.9994
3.5271	27.0782
3.5247	26.0829
3.52231	25.0296
3.51991	23.801
3.51753	22.3614
3.51514	20.709
3.51276	19.078
3.51038	17.4802
3.50801	15.8666
3.50563	14.3268
3.50327	12.7704
3.5009	11.3251
3.49854	10.0714
3.49618	8.98582
3.49382	8.06462
3.49147	7.27346
3.48912	6.68947
3.48677	6.26036
3.48443	5.9137
3.48209	5.60383
3.47975	5.36381
3.47742	5.16555
3.47509	4.89123
3.47276	4.64936
3.47044	4.47912
3.46812	4.39268
3.4658	4.32151
3.46348	4.22032
3.46117	4.22366
3.45886	4.13754
3.45656	3.95108
3.45425	3.99158
3.45195	4.08037
3.44966	3.98527
3.44736	3.85845
3.44507	3.93247
3.44279	4.09301
3.4405	4.30393
3.43822	4.55647
3.43594	4.82619
3.43367	5.19848
3.43139	5.57077
3.42912	5.88047
3.42686	6.16464
3.42459	6.39385
3.42233	6.52191
3.42007	6.66206
3.41782	6.78031
3.41557	6.84006
3.41332	6.95154
3.41108	7.01815
3.40883	7.06282
3.40659	7.18575
3.40435	7.30003
3.40212	7.34649
3.39989	7.48581
3.39766	7.58953
3.39544	7.72443
3.39322	7.9307
3.391	8.02108
3.38878	8.10545
3.38657	8.33508
3.38436	8.56033
3.38215	8.76601
3.37994	9.13657
3.37774	9.55552
3.37554	9.79698
3.37335	9.72512
3.37115	9.45876
3.36896	9.15439
3.36678	9.01474
3.36459	8.74335
3.36241	8.28546
3.36023	7.92421
3.35805	7.66182
3.35588	7.53389
3.35371	7.40352
3.35154	7.10375
3.34938	6.81878
3.34721	6.63665
3.34505	6.43879
3.3429	6.34518
3.34074	6.36233
3.33859	6.35809
3.33644	6.27548
3.3343	6.21725
3.33215	6.3129
3.33001	6.39084
3.32788	6.43457
3.32574	6.35253
3.32361	6.19837
3.32148	5.98695
3.31936	5.75574
3.31723	5.57928
3.31511	5.41369
3.31299	5.2002
3.31088	5.14805
3.30876	5.23752
3.30665	5.2983
3.30455	5.43336
3.30244	5.92205
3.30034	6.71487
3.29824	7.91367
3.29614	9.78861
3.29405	12.1647
3.29196	14.5653
3.28987	16.6935
3.28778	18.3724
3.2857	19.7844
3.28362	21.022
3.28154	22.0162
3.27946	22.9735
3.27739	23.9062
3.27532	24.7307
3.27325	25.4202
3.27119	26.0869
3.26913	26.6919
3.26707	27.1646
3.26501	27.5783
3.26295	28.0177
3.2609	28.4694
3.25885	28.916
3.2568	29.3106
3.25476	29.662
3.25272	29.993
3.25068	30.382
3.24864	30.7811
3.24661	31.0821
3.24458	31.2982
3.24255	31.5884
3.24052	32.0041
3.2385	32.3912
3.23648	32.5732
3.23446	32.662
3.23244	32.883
3.23043	33.1091
3.22841	33.2852
3.2264	33.4223
3.2244	33.6557
3.22239	33.9313
3.22039	34.0467
3.21839	34.1912
3.2164	34.3016
3.2144	34.484
3.21241	34.6783
3.21042	34.777
3.20844	34.7557
3.20645	34.7266
3.20447	34.8933
3.20249	35.0596
3.20051	35.158
3.19854	35.2929
3.19657	35.3581
3.1946	35.4565
3.19263	35.6043
3.19067	35.6795
3.1887	35.6576
3.18674	35.5992
3.18479	35.6395
3.18283	35.7004
3.18088	35.7509
3.17893	35.7425
3.17698	35.6857
3.17504	35.6447
3.17309	35.6733
3.17115	35.7147
3.16921	35.7366
3.16728	35.7439
3.16534	35.6832
3.16341	35.4966
3.16148	35.3603
3.15956	35.2971
3.15763	35.1492
3.15571	35.0901
3.15379	34.9761
3.15187	34.7267
3.14996	34.4652
3.14805	34.1462
3.14614	33.8551
3.14423	33.6264
3.14232	33.5272
3.14042	33.5143
3.13852	33.4758
3.13662	33.4623
3.13472	33.4712
3.13283	33.4387
3.13094	33.4861
3.12905	33.5691
3.12716	33.6469
3.12528	33.8156
3.12339	34.0128
3.12151	34.0062
3.11964	33.8596
3.11776	33.8165
3.11589	33.9069
3.11401	33.9758
3.11214	33.9974
3.11028	33.9693
3.10841	33.9786
3.10655	34.0282
3.10469	34.0397
3.10283	34.0046
3.10098	33.9739
3.09912	33.9313
3.09727	33.9381
3.09542	33.8438
3.09358	33.6338
3.09173	33.4617
3.08989	33.2639
3.08805	33.1415
3.08621	33.1862
3.08437	33.1452
3.08254	33.1019
3.08071	33.1175
3.07888	33.1186
3.07705	33.2833
3.07523	33.4136
3.0734	33.5179
3.07158	33.7317
3.06977	34.0126
3.06795	34.0557
3.06613	34.1288
3.06432	34.3693
3.06251	34.6144
3.0607	34.7489
3.0589	34.871
3.0571	34.9703
3.05529	35.047
3.05349	35.1427
3.0517	35.2452
3.0499	35.3205
3.04811	35.3125
3.04632	35.1959
3.04453	35.2429
3.04274	35.2737
3.04096	35.3042
3.03918	35.457
3.0374	35.538
3.03562	35.6335
3.03384	35.802
3.03207	35.9168
3.03029	35.9933
3.02852	36.2602
3.02676	36.4358
3.02499	36.4893
3.02323	36.5609
3.02146	36.7421
3.0197	36.93
3.01795	36.9589
3.01619	37.014
3.01444	37.1692
3.01269	37.2708
3.01094	37.3847
3.00919	37.4007
3.00744	37.5117
3.0057	37.6541
3.00396	37.7089
3.00222	37.7554
3.00048	37.7513
2.99875	37.7021
2.99701	37.7075
2.99528	37.7593
2.99355	37.7298
2.99183	37.6278
2.9901	37.5942
2.98838	37.5341
2.98666	37.4844
2.98494	37.5293
2.98322	37.586
2.9815	37.647
2.97979	37.7485
2.97808	37.5882
2.97637	37.5034
2.97466	37.6378
2.97295	37.5994
2.97125	37.612
2.96955	37.7135
2.96785	37.765
2.96615	37.8404
2.96446	37.7708
2.96276	37.7015
2.96107	37.7453
2.95938	37.8128
2.95769	37.8444
2.95601	37.8146
2.95432	37.87
2.95264	37.8021
2.95096	37.7334
2.94928	37.8052
2.9476	37.9697
2.94593	37.9708
2.94425	37.8116
2.94258	37.8644
2.94092	38.0096
2.93925	38.0915
2.93758	38.1179
2.93592	38.1815
2.93426	38.2634
2.9326	38.2953
2.93094	38.2021
2.92928	38.2528
2.92763	38.3145
2.92598	38.2932
2.92433	38.224
2.92268	38.2868
2.92103	38.3935
2.91939	38.2995
2.91775	38.2334
2.9161	38.3499
2.91447	38.572
2.91283	38.7847
2.91119	38.8958
2.90956	39.0933
2.90793	39.3354
2.9063	39.6054
2.90467	39.9168
2.90304	40.107
2.90142	40.3142
2.89979	40.5593
2.89817	40.6471
2.89656	40.6888
2.89494	40.9361
2.89332	41.1036
2.89171	41.3473
2.8901	41.5834
2.88849	41.7464
2.88688	41.7914
2.88527	41.9055
2.88367	42.1115
2.88206	42.2835
2.88046	42.3698
2.87886	42.4276
2.87727	42.5866
2.87567	42.6826
2.87408	42.6052
2.87248	42.5735
2.87089	42.5995
2.8693	42.7148
2.86772	42.9564
2.86613	43.2942
2.86455	43.573
2.86297	43.727
2.86139	43.8043
2.85981	43.897
2.85823	43.9823
2.85666	43.9758
2.85508	43.9547
2.85351	43.9907
2.85194	43.9128
2.85038	43.9024
2.84881	44.0198
2.84724	44.1793
2.84568	44.4332
2.84412	44.7628
2.84256	45.132
2.841	45.5888
2.83945	46.0011
2.83789	46.3278
2.83634	46.629
2.83479	46.9173
2.83324	47.3011
2.83169	47.6228
2.83015	47.8939
2.82861	48.1028
2.82706	48.273
2.82552	48.4852
2.82398	48.7609
2.82245	49.1321
2.82091	49.4216
2.81938	49.5984
2.81784	49.7805
2.81631	49.8313
2.81479	49.9503
2.81326	50.1871
2.81173	50.2937
2.81021	50.3633
2.80869	50.4476
2.80716	50.3679
2.80565	50.3873
2.80413	50.3877
2.80261	50.2336
2.8011	50.0481
2.79959	49.9262
2.79808	49.7237
2.79657	49.6055
2.79506	49.4367
2.79355	49.2525
2.79205	49.1335
2.79055	49.1114
2.78904	49.0991
2.78754	49.0456
2.78605	48.8034
2.78455	48.5273
2.78306	48.3613
2.78156	48.0466
2.78007	47.5272
2.77858	47.0681
2.77709	46.9945
2.77561	46.7612
2.77412	46.1315
2.77264	45.5206
2.77116	45.4133
2.76968	45.3897
2.7682	45.5038
2.76672	45.7907
2.76524	46.2269
2.76377	46.8218
2.7623	47.4201
2.76083	48.1159
2.75936	48.6208
2.75789	48.9943
2.75642	49.7701
2.75496	50.586
2.7535	51.0128
2.75203	51.6228
2.75057	52.1053
2.74912	52.6563
2.74766	53.3048
2.7462	53.8073
2.74475	54.4398
2.7433	55.3299
2.74185	56.3123
2.7404	57.2056
2.73895	57.7947
2.7375	58.1266
2.73606	58.7684
2.73462	59.5615
2.73318	60.0961
2.73174	60.6221
2.7303	61.1664
2.72886	61.611
2.72742	62.034
2.72599	62.5979
2.72456	63.1458
2.72313	63.4508
2.7217	63.9292
2.72027	64.487
2.71884	64.6251
2.71742	64.9673
2.71599	65.4449
2.71457	65.8897
2.71315	66.4512
2.71173	67.2032
2.71032	67.7971
2.7089	68.1257
2.70748	68.3693
2.70607	68.601
2.70466	68.8726
2.70325	69.0432
2.70184	69.2859
2.70043	69.3807
2.69903	69.2925
2.69762	69.3053
2.69622	69.4623
2.69482	69.616
2.69342	69.4992
2.69202	69.2428
2.69062	69.2454
2.68923	69.3802
2.68783	69.564
2.68644	69.8353
2.68505	70.2419
2.68366	70.8056
2.68227	71.21
2.68089	71.709
2.6795	72.4051
2.67812	72.9941
2.67673	73.6228
2.67535	73.9601
2.67397	74.0744
2.6726	74.4492
2.67122	75.2926
2.66984	75.7237
2.66847	75.8795
2.6671	76.5399
2.66572	76.92
2.66435	77.0061
2.66299	77.0741
2.66162	77.3725
2.66025	77.6941
2.65889	77.9211
2.65753	78.0177
2.65616	78.3498
2.65481	78.691
2.65345	78.9844
2.65209	79.0137
2.65073	78.8897
2.64938	79.056
2.64803	79.3879
2.64667	79.5332
2.64532	79.6448
2.64397	79.6539
2.64263	79.8116
2.64128	80.0023
2.63994	80.0626
2.63859	79.9241
2.63725	79.9122
2.63591	80.0264
2.63457	80.1601
2.63323	80.3043
2.6319	80.491
2.63056	80.8068
2.62923	80.7635
2.62789	80.7372
2.62656	80.8847
2.62523	80.7572
2.6239	80.727
2.62258	80.8374
2.62125	81.1776
2.61993	81.3891
2.6186	81.2143
2.61728	81.3352
2.61596	81.3126
2.61464	81.1458
2.61332	81.2387
2.61201	81.2275
2.61069	81.2598
2.60938	81.4113
2.60807	81.4928
2.60675	81.6101
2.60544	81.6932
2.60414	81.4347
2.60283	81.3007
2.60152	81.2607
2.60022	81.1866
2.59891	81.1737
2.59761	81.2331
2.59631	81.5122
2.59501	81.8758
2.59371	81.5379
2.59242	80.9707
2.59112	80.724
2.58983	80.7391
2.58853	80.8797
2.58724	80.7342
2.58595	80.4649
2.58466	80.5291
2.58338	80.369
2.58209	80.0474
2.5808	79.8776
2.57952	79.6922
2.57824	79.5975
2.57695	79.6021
2.57567	79.4127
2.5744	79.1966
2.57312	78.8371
2.57184	78.2617
2.57057	78.0134
2.56929	77.7405
2.56802	77.2405
2.56675	76.7731
2.56548	76.458
2.56421	76.22
2.56294	75.8637
2.56168	75.5157
2.56041	75.1754
2.55915	74.8121
2.55789	74.5027
2.55662	74.0975
2.55536	73.5561
2.5541	73.089
2.55285	72.5657
2.55159	71.8189
2.55034	71.0126
2.54908	70.1652
2.54783	69.1931
2.54658	68.0476
2.54533	66.9488
2.54408	65.8953
2.54283	64.751
2.54159	63.4827
2.54034	62.1721
2.5391	60.9674
2.53785	59.71
2.53661	58.5679
2.53537	57.4711
2.53413	56.4448
2.53289	55.5244
2.53166	54.695
2.53042	53.8463
2.52919	52.9777
2.52795	52.1593
2.52672	51.5626
2.52549	51.1464
2.52426	50.7149
2.52303	50.2479
2.52181	49.8386
2.52058	49.5346
2.51936	49.1651
2.51813	48.8997
2.51691	48.8209
2.51569	48.7842
2.51447	48.7753
2.51325	48.8879
2.51203	49.0264
2.51082	49.1888
2.5096	49.3564
2.50839	49.5325
2.50717	49.6118
2.50596	49.8385
2.50475	50.2752
2.50354	50.6273
2.50233	50.9549
2.50113	51.277
2.49992	51.5715
2.49872	51.8024
2.49751	51.9968
2.49631	52.2696
2.49511	52.5089
2.49391	52.8246
2.49271	53.2966
2.49151	53.7233
2.49031	54.0882
2.48912	54.4816
2.48792	54.9434
2.48673	55.3865
2.48554	55.7154
2.48435	56.1273
2.48316	56.5945
2.48197	57.007
2.48078	57.2759
2.4796	57.487
2.47841	57.7392
2.47723	57.8731
2.47604	58.0573
2.47486	58.1682
2.47368	58.271
2.4725	58.3499
2.47132	58.4486
2.47014	58.5593
2.46897	58.6469
2.46779	58.7903
2.46662	58.9738
2.46545	59.0789
2.46427	59.0896
2.4631	59.1707
2.46193	59.2537
2.46077	59.4239
2.4596	59.5889
2.45843	59.8534
2.45727	60.1137
2.4561	60.3696
2.45494	60.692
2.45378	61.0451
2.45262	61.4909
2.45146	61.9517
2.4503	62.278
2.44914	62.5505
2.44799	62.9329
2.44683	63.5193
2.44568	64.0517
2.44452	64.5844
2.44337	65.1578
2.44222	65.6578
2.44107	66.1182
2.43992	66.7536
2.43877	67.4124
2.43763	67.8995
2.43648	68.2451
2.43534	68.557
2.43419	68.8878
2.43305	69.2598
2.43191	69.5692
2.43077	69.8123
2.42963	70.2647
2.42849	70.7466
2.42736	71.3086
2.42622	71.871
2.42509	72.3011
2.42395	72.7731
2.42282	73.2445
2.42169	73.6424
2.42056	73.9366
2.41943	74.343
2.4183	74.7337
2.41717	75.1263
2.41605	75.5005
2.41492	75.8269
2.4138	76.033
2.41267	76.2562
2.41155	76.446
2.41043	76.6639
2.40931	76.7951
2.40819	76.8675
2.40707	77.0246
2.40595	77.2169
2.40484	77.3862
2.40372	77.5222
2.40261	77.5303
2.4015	77.6203
2.40039	77.9378
2.39928	78.251
2.39817	78.4482
2.39706	78.6747
2.39595	78.8611
2.39484	78.9297
2.39374	79.1067
2.39263	79.4043
2.39153	79.6222
2.39043	79.72
2.38932	79.8511
2.38822	79.9887
2.38712	79.974
2.38603	79.9414
2.38493	79.9765
2.38383	80.0274
2.38274	80.2082
2.38164	80.4047
2.38055	80.4838
2.37946	80.7101
2.37836	81.0179
2.37727	81.2701
2.37618	81.4904
2.3751	81.6144
2.37401	81.7616
2.37292	81.9095
2.37184	82.01
2.37075	81.9812
2.36967	81.8526
2.36859	81.8276
2.3675	81.8773
2.36642	81.8002
2.36534	81.7412
2.36427	81.6086
2.36319	81.3834
2.36211	81.2681
2.36104	81.1514
2.35996	80.9725
2.35889	80.8295
2.35781	80.5823
2.35674	80.2653
2.35567	79.8595
2.3546	79.3765
2.35353	78.9339
2.35247	78.4844
2.3514	77.8142
2.35033	77.0302
2.34927	76.1779
2.3482	75.3652
2.34714	74.6617
2.34608	73.8742
2.34502	72.8806
2.34396	71.9678
2.3429	71.1345
2.34184	70.4105
2.34078	69.704
2.33973	68.8838
2.33867	68.1522
2.33762	67.5439
2.33656	66.8334
2.33551	66.1477
2.33446	65.4899
2.33341	64.701
2.33236	64.0876
2.33131	63.6607
2.33026	63.1219
2.32922	62.6337
2.32817	62.1893
2.32712	62.0514
2.32608	61.9043
2.32504	61.6379
2.324	61.5649
2.32295	61.742
2.32191	61.6163
2.32087	61.4538
2.31984	61.603
2.3188	61.7073
2.31776	61.7995
2.31673	61.9663
2.31569	62.0005
2.31466	62.0955
2.31362	62.2229
2.31259	62.4264
2.31156	62.7338
2.31053	62.9286
2.3095	63.0277
2.30847	63.0938
2.30745	63.2131
2.30642	63.4432
2.3054	63.7523
2.30437	63.9612
2.30335	64.1381
2.30232	64.2728
2.3013	64.399
2.30028	64.6423
2.29926	64.8656
2.29824	64.9843
2.29722	65.127
2.29621	65.3839
2.29519	65.554
2.29417	65.6849
2.29316	65.9064
2.29215	66.1426
2.29113	66.3534
2.29012	66.6245
2.28911	66.905
2.2881	66.9671
2.28709	67.1127
2.28608	67.2724
2.28507	67.3836
2.28407	67.6152
2.28306	67.8925
2.28206	67.9672
2.28105	67.8913
2.28005	67.9445
2.27905	67.9928
2.27805	68.0954
2.27705	68.2229
2.27605	68.2374
2.27505	68.323
2.27405	68.4728
2.27305	68.5342
2.27206	68.5599
2.27106	68.7078
2.27007	68.9065
2.26907	69.0344
2.26808	69.1564
2.26709	69.3875
2.2661	69.5125
2.26511	69.6205
2.26412	70.0319
2.26313	70.5215
2.26214	70.9591
2.26116	71.2101
2.26017	71.314
2.25919	71.6831
2.2582	72.1198
2.25722	72.3184
2.25624	72.6808
2.25526	73.1318
2.25428	73.5682
2.2533	73.7868
2.25232	74.0627
2.25134	74.477
2.25036	74.7961
2.24939	75.1323
2.24841	75.5112
2.24744	75.8832
2.24646	76.1957
2.24549	76.412
2.24452	76.6433
2.24355	76.9212
2.24257	77.2962
2.24161	77.4875
2.24064	77.7029
2.23967	77.9309
2.2387	78.1892
2.23774	78.6528
2.23677	78.8636
2.23581	79.0491
2.23484	79.3388
2.23388	79.4672
2.23292	79.4614
2.23196	79.5259
2.231	79.7826
2.23004	80.0101
2.22908	80.2718
2.22812	80.4758
2.22716	80.5463
2.22621	80.7423
2.22525	80.8671
2.2243	81.0077
2.22334	81.1992
2.22239	81.2502
2.22144	81.1849
2.22049	81.2998
2.21953	81.4842
2.21859	81.6615
2.21764	81.8463
2.21669	81.9733
2.21574	82.1076
2.21479	82.2482
2.21385	82.3451
2.2129	82.4684
2.21196	82.5924
2.21102	82.8187
2.21007	83.0271
2.20913	83.2064
2.20819	83.3452
2.20725	83.4647
2.20631	83.5449
2.20537	83.6653
2.20444	83.7506
2.2035	83.9056
2.20256	84.0596
2.20163	84.3053
2.20069	84.5062
2.19976	84.598
2.19883	84.7942
2.19789	84.9714
2.19696	84.9595
2.19603	84.9718
2.1951	85.0395
2.19417	85.1735
2.19325	85.3329
2.19232	85.499
2.19139	85.525
2.19047	85.6978
2.18954	85.9513
2.18862	85.8584
2.18769	85.7292
2.18677	85.9818
2.18585	86.2371
2.18493	86.1293
2.18401	85.9627
2.18309	86.0814
2.18217	86.1623
2.18125	86.2927
2.18033	86.3912
2.17942	86.3248
2.1785	86.374
2.17759	86.4493
2.17667	86.4942
2.17576	86.5299
2.17485	86.7074
2.17393	86.8402
2.17302	86.7554
2.17211	86.7025
2.1712	86.7235
2.17029	86.7104
2.16939	86.7292
2.16848	86.7164
2.16757	86.668
2.16667	86.6903
2.16576	86.58
2.16486	86.4495
2.16395	86.535
2.16305	86.3659
2.16215	86.1805
2.16125	86.1831
2.16035	86.2717
2.15945	86.3982
2.15855	86.3516
2.15765	86.1612
2.15675	86.1092
2.15586	86.1182
2.15496	85.989
2.15406	86.0122
2.15317	85.9375
2.15228	85.7275
2.15138	85.6664
2.15049	85.6389
2.1496	85.664
2.14871	85.67
2.14782	85.5601
2.14693	85.4279
2.14604	85.3918
2.14515	85.3818
2.14427	85.2466
2.14338	85.152
2.14249	85.2561
2.14161	85.178
2.14072	85.0129
2.13984	85.1444
2.13896	85.2125
2.13808	85.3043
2.13719	85.4244
2.13631	85.3102
2.13543	85.3288
2.13455	85.5037
2.13368	85.5582
2.1328	85.5909
2.13192	85.6031
2.13105	85.5833
2.13017	85.6472
2.1293	85.7712
2.12842	85.8462
2.12755	85.8151
2.12668	85.857
2.1258	85.9735
2.12493	86.1947
2.12406	86.3874
2.12319	86.3845
2.12232	86.4001
2.12145	86.6163
2.12059	86.6745
2.11972	86.5591
2.11885	86.6589
2.11799	86.7177
2.11712	86.6635
2.11626	86.8992
2.1154	87.0174
2.11453	87.0745
2.11367	87.2284
2.11281	87.1928
2.11195	87.0859
2.11109	87.2932
2.11023	87.6038
2.10937	87.549
2.10851	87.5005
2.10766	87.5326
2.1068	87.4616
2.10594	87.4565
2.10509	87.6721
2.10423	87.663
2.10338	87.5076
2.10253	87.6438
2.10168	87.8333
2.10082	87.8232
2.09997	87.8024
2.09912	87.8131
2.09827	87.7379
2.09742	87.6143
2.09658	87.6072
2.09573	87.7191
2.09488	87.788
2.09404	87.9371
2.09319	87.9552
2.09235	88.1824
2.0915	88.3775
2.09066	88.1654
2.08982	87.8404
2.08897	87.9981
2.08813	88.2792
2.08729	88.1464
2.08645	87.977
2.08561	88.2327
2.08477	88.1583
2.08394	88.1984
2.0831	88.3309
2.08226	88.2261
2.08143	88.2568
2.08059	88.4303
2.07976	88.5189
2.07892	88.5336
2.07809	88.2882
2.07726	88.1237
2.07643	88.047
2.07559	88.1168
2.07476	88.3143
2.07393	88.4849
2.0731	88.7205
2.07228	88.8753
2.07145	89.2142
2.07062	89.3519
2.06979	89.4709
2.06897	89.1416
2.06814	88.5564
2.06732	88.5947
2.06649	88.4767
2.06567	88.314
2.06485	88.7172
2.06403	88.8921
2.0632	88.7333
2.06238	88.6118
2.06156	88.6633
2.06074	89.0283
2.05993	89.2549
2.05911	89.0362
2.05829	88.9201
2.05747	89.0232
2.05666	89.1024
2.05584	89.1407
2.05503	89.0463
2.05421	89.0601
2.0534	89.1
2.05259	89.0649
2.05177	89.0025
2.05096	88.8125
2.05015	88.8219
2.04934	88.9249
2.04853	88.9745
2.04772	89.0189
2.04691	89.1439
2.04611	89.1463
2.0453	89.0527
2.04449	89.1258
2.04369	89.1982
2.04288	89.1007
2.04208	88.9975
2.04127	88.963
2.04047	88.9844
2.03967	89.1798
2.03886	89.3287
2.03806	89.166
2.03726	88.9887
2.03646	88.8648
2.03566	88.9953
2.03486	88.9878
2.03407	88.7457
2.03327	88.8238
2.03247	88.983
2.03167	89.1668
2.03088	89.2082
2.03008	89.0436
2.02929	89.0361
2.0285	89.1358
2.0277	88.9623
2.02691	88.6169
2.02612	88.5506
2.02533	88.9832
2.02453	88.8383
2.02374	88.7825
2.02295	88.8887
2.02217	88.8459
2.02138	88.7684
2.02059	88.6848
2.0198	88.7725
2.01902	88.7714
2.01823	88.53
2.01744	88.4926
2.01666	88.7164
2.01588	88.8475
2.01509	89.0101
2.01431	88.7876
2.01353	88.437
2.01275	88.3986
2.01196	88.5628
2.01118	88.545
2.0104	88.5714
2.00963	88.4391
2.00885	88.3182
2.00807	88.1968
2.00729	88.175
2.00651	88.0005
2.00574	87.9637
2.00496	88.2052
2.00419	88.2077
2.00341	88.0979
2.00264	88.0938
2.00187	87.8951
2.00109	87.7102
2.00032	87.5869
