Name: Tourmaline Na(Mg_3,Fe_3^2+)Al_6(BO_3)_3Si_6O_18(OH)_4
Type: Mineral
Class: Silicates
Subclass: Cyclosilicates
Particle Size: 0-45um
Sample No.: CS-1A
Owner: JPL
Wavelength range: IR
Origin: USA, New York, Overlook
Collected by Ward's
Description: 





Measurement: Hemispherical reflectance
First Column: X
Second Column: Y
X Units:  Wavelength (micrometers)
Y Units:  Reflectance (percent)
First X Value: 15.3853
Last X Value: 2.00032
Number of X Values: 2256
Additional information: cs01aa.txt
 
15.3853	1.96212
15.3397	1.87262
15.2945	1.88597
15.2495	1.88081
15.2048	1.89599
15.1603	2.1855
15.1161	2.0346
15.0722	2.04285
15.0285	2.22661
14.9851	2.0878
14.9419	2.06751
14.8989	2.22461
14.8563	2.21196
14.8138	2.14716
14.7716	2.08068
14.7296	2.15873
14.6879	2.32635
14.6464	2.47536
14.6052	2.49401
14.5641	2.45729
14.5233	2.28588
14.4828	2.2082
14.4424	2.42515
14.4023	2.60502
14.3624	2.70171
14.3227	2.83062
14.2833	2.98637
14.244	2.92384
14.205	2.70867
14.1662	2.79528
14.1276	3.18979
14.0892	3.31385
14.051	3.24809
14.0131	3.141
13.9753	2.86614
13.9377	2.65725
13.9004	2.51611
13.8632	2.38495
13.8262	2.15781
13.7895	1.9967
13.7529	1.91879
13.7165	1.89786
13.6803	1.81125
13.6443	1.81378
13.6085	1.81805
13.5729	1.81607
13.5374	1.82292
13.5022	1.88683
13.4671	1.89326
13.4322	1.919
13.3975	1.95147
13.363	1.97966
13.3286	2.02838
13.2944	2.2687
13.2604	2.45636
13.2266	2.42255
13.193	2.35446
13.1595	2.30644
13.1262	2.388
13.093	2.64539
13.06	2.7971
13.0272	2.8754
12.9946	2.9728
12.9621	3.09844
12.9298	3.29174
12.8976	3.36906
12.8656	3.36223
12.8337	3.43497
12.8021	3.73249
12.7705	4.01291
12.7391	4.07037
12.7079	3.99208
12.6769	3.96389
12.6459	4.11644
12.6152	4.18112
12.5845	4.22376
12.5541	4.13255
12.5238	4.03791
12.4936	4.00155
12.4635	3.96721
12.4337	4.10819
12.4039	4.24567
12.3743	4.28369
12.3448	4.23357
12.3155	4.23352
12.2863	4.33153
12.2573	4.27466
12.2284	4.33418
12.1996	4.55541
12.171	4.60335
12.1425	4.54693
12.1141	4.9178
12.0859	5.33226
12.0578	5.3532
12.0298	5.431
12.0019	5.69795
11.9742	5.91048
11.9466	6.09953
11.9192	6.21588
11.8918	6.19929
11.8646	6.37705
11.8375	6.51324
11.8106	6.50546
11.7837	6.66136
11.757	6.82306
11.7304	6.94164
11.7039	6.90988
11.6776	6.97562
11.6513	7.1428
11.6252	7.30241
11.5992	7.50541
11.5733	7.64033
11.5475	7.71208
11.5219	7.72703
11.4963	7.92361
11.4709	8.00889
11.4455	7.95002
11.4203	7.8478
11.3952	7.93291
11.3702	7.8158
11.3454	7.62872
11.3206	7.4662
11.2959	7.30621
11.2714	7.05794
11.2469	6.74095
11.2226	6.52607
11.1983	6.39254
11.1742	6.27057
11.1502	6.15636
11.1263	6.06789
11.1024	5.86148
11.0787	5.76402
11.0551	5.83064
11.0316	5.75891
11.0081	5.68427
10.9848	5.54817
10.9616	5.43652
10.9385	5.63476
10.9154	5.79257
10.8925	5.82579
10.8697	5.75754
10.8469	5.63628
10.8243	5.66445
10.8017	5.6676
10.7793	5.61046
10.7569	5.68929
10.7346	5.69849
10.7125	5.61145
10.6904	5.53549
10.6684	5.60592
10.6465	5.60707
10.6247	5.53097
10.6029	5.55293
10.5813	5.62149
10.5597	5.67996
10.5383	5.70038
10.5169	5.82047
10.4956	5.90273
10.4744	5.946
10.4533	6.09371
10.4323	6.08518
10.4113	6.11452
10.3904	6.29159
10.3697	6.46005
10.349	6.68366
10.3284	6.90865
10.3078	7.00354
10.2874	6.98866
10.267	6.97506
10.2467	7.11354
10.2265	7.22817
10.2064	7.28532
10.1863	7.27811
10.1663	7.24063
10.1464	7.20531
10.1266	7.1369
10.1069	7.0597
10.0872	6.89225
10.0676	6.77488
10.0481	6.7074
10.0287	6.51043
10.0093	6.40604
9.99005	6.18271
9.97084	6.04311
9.95169	5.9886
9.93263	5.82386
9.91364	5.65115
9.89472	5.63925
9.87587	5.60873
9.8571	5.56647
9.83839	5.69516
9.81976	5.80998
9.80119	5.79112
9.78271	5.90293
9.76428	5.97517
9.74592	6.02257
9.72764	6.0363
9.70943	6.08769
9.69128	6.10279
9.6732	6.05751
9.65518	6.17918
9.63724	6.2403
9.61935	6.20755
9.60155	6.30757
9.5838	6.42908
9.56611	6.26856
9.5485	6.19268
9.53094	6.1228
9.51345	5.81054
9.49604	5.57055
9.47867	5.25096
9.46137	4.82435
9.44414	4.49512
9.42697	4.3447
9.40986	4.30961
9.39281	4.19043
9.37583	4.05296
9.35891	4.00545
9.34204	3.97681
9.32524	4.08429
9.3085	4.16163
9.29182	4.09689
9.27519	4.2612
9.25863	4.39861
9.24213	4.58032
9.22568	4.76327
9.2093	4.75804
9.19297	4.80056
9.17669	4.85464
9.16048	4.88218
9.14433	4.9922
9.12823	5.16281
9.11218	5.25331
9.0962	5.14514
9.08027	4.89207
9.06439	4.70919
9.04858	4.55871
9.03281	4.45349
9.0171	4.25267
9.00145	3.93884
8.98585	3.71296
8.9703	3.4336
8.9548	3.0744
8.93937	2.87989
8.92398	2.75553
8.90865	2.48615
8.89337	2.19607
8.87814	1.95938
8.86296	1.91556
8.84784	2.03056
8.83277	1.9212
8.81774	1.78671
8.80277	1.85455
8.78786	1.9755
8.77298	1.93819
8.75816	2.01463
8.7434	2.25595
8.72868	2.22896
8.714	2.20801
8.69938	2.37418
8.68481	2.49943
8.67029	2.48953
8.65581	2.57427
8.64139	2.94351
8.62701	3.15816
8.61268	3.21415
8.5984	3.27602
8.58416	3.32891
8.56997	3.54272
8.55583	3.76587
8.54174	3.79143
8.52769	3.82955
8.51368	3.99069
8.49973	4.08946
8.48582	4.09926
8.47195	4.1823
8.45813	4.38596
8.44436	4.43657
8.43062	4.41951
8.41693	4.56866
8.4033	4.69295
8.3897	4.66205
8.37614	4.71581
8.36264	4.69235
8.34917	4.55722
8.33574	4.50962
8.32236	4.47318
8.30903	4.34463
8.29573	4.17383
8.28248	4.06308
8.26927	3.94358
8.2561	3.92682
8.24298	3.91227
8.2299	3.90052
8.21685	3.80006
8.20385	3.65855
8.19089	3.6311
8.17797	3.7955
8.16509	3.91922
8.15225	3.81768
8.13946	3.69578
8.1267	3.65777
8.11398	3.73275
8.10131	3.77156
8.08867	3.73817
8.07606	3.76227
8.0635	3.85068
8.05099	3.76576
8.0385	3.65245
8.02606	3.65894
8.01366	3.73709
8.00129	3.74493
7.98896	3.7268
7.97667	3.80383
7.96442	3.79197
7.9522	3.78585
7.94002	3.79134
7.92788	3.70089
7.91578	3.67607
7.90371	3.73738
7.89168	3.79171
7.87969	3.71403
7.86773	3.67905
7.85581	3.63102
7.84392	3.60017
7.83207	3.56395
7.82026	3.54086
7.80849	3.46175
7.79674	3.38487
7.78503	3.39022
7.77337	3.40109
7.76173	3.41059
7.75012	3.41092
7.73856	3.339
7.72703	3.26604
7.71553	3.2649
7.70406	3.24805
7.69263	3.21405
7.68123	3.1302
7.66987	3.02822
7.65855	2.97378
7.64725	3.0268
7.63598	2.96949
7.62475	2.8551
7.61356	2.78405
7.60239	2.70117
7.59126	2.62983
7.58017	2.71017
7.5691	2.70226
7.55806	2.50373
7.54707	2.44032
7.5361	2.44121
7.52516	2.34286
7.51425	2.30871
7.50338	2.35058
7.49253	2.44166
7.48172	2.44032
7.47094	2.41722
7.46019	2.46854
7.44947	2.5208
7.43879	2.54108
7.42813	2.5897
7.4175	2.66391
7.4069	2.67484
7.39634	2.64808
7.3858	2.68538
7.37529	2.62365
7.36482	2.6045
7.35437	2.63492
7.34396	2.62194
7.33357	2.56292
7.32321	2.48295
7.31288	2.45533
7.30258	2.42399
7.29231	2.34355
7.28207	2.31625
7.27185	2.29771
7.26167	2.18906
7.25152	2.08385
7.24139	2.00775
7.23129	1.96138
7.22122	1.94737
7.21117	1.81021
7.20116	1.65976
7.19117	1.63358
7.18121	1.69166
7.17128	1.68319
7.16137	1.56039
7.1515	1.52073
7.14164	1.49218
7.13182	1.42882
7.12203	1.45521
7.11225	1.43442
7.10251	1.38782
7.0928	1.43599
7.08311	1.47011
7.07344	1.46609
7.06381	1.51885
7.0542	1.64851
7.04461	1.70129
7.03506	1.63738
7.02552	1.59033
7.01601	1.69381
7.00653	1.8099
6.99708	1.80497
6.98765	1.86121
6.97824	2.08322
6.96886	2.40199
6.95951	2.63212
6.95018	2.74024
6.94087	2.89108
6.9316	3.12571
6.92234	3.40686
6.91311	3.71898
6.90391	3.92308
6.89473	4.12645
6.88557	4.40647
6.87644	4.68193
6.86733	5.11563
6.85824	5.41759
6.84918	5.51836
6.84015	5.66236
6.83114	5.90569
6.82215	6.16018
6.81319	6.40684
6.80424	6.5916
6.79532	6.84554
6.78643	7.07567
6.77756	7.16275
6.76871	7.33668
6.75989	7.48978
6.75109	7.67777
6.74231	7.86425
6.73355	8.07995
6.72482	8.31124
6.71611	8.51151
6.70742	8.60698
6.69875	8.75382
6.69011	9.05379
6.68149	9.32102
6.67289	9.51193
6.66431	9.71374
6.65576	9.87249
6.64722	10.141
6.63871	10.5065
6.63022	10.5451
6.62175	10.5175
6.61331	10.6991
6.60488	10.8604
6.59648	11.107
6.5881	11.3275
6.57974	11.5825
6.5714	11.8838
6.56308	11.8904
6.55478	12.0241
6.54651	12.1572
6.53825	12.2325
6.53001	12.4349
6.5218	12.7511
6.51361	12.7741
6.50544	13.0606
6.49729	13.6327
6.48915	13.7437
6.48104	13.6492
6.47295	13.7034
6.46488	13.7423
6.45683	13.8304
6.4488	14.0052
6.44079	14.1788
6.4328	14.3821
6.42482	14.6427
6.41687	15.1608
6.40894	15.1429
6.40103	14.8276
6.39314	14.8598
6.38526	14.9631
6.37741	15.1304
6.36957	15.2608
6.36176	15.1919
6.35396	15.3808
6.34618	15.7042
6.33843	15.5987
6.33069	15.4227
6.32297	15.4484
6.31527	15.4711
6.30758	15.5915
6.29992	15.6302
6.29227	15.6757
6.28465	15.7587
6.27704	15.8184
6.26945	15.868
6.26188	15.9667
6.25432	16.0693
6.24679	16.0819
6.23927	16.0757
6.23177	16.1233
6.22429	16.1731
6.21683	16.1529
6.20938	16.2321
6.20195	16.3193
6.19454	16.4468
6.18715	16.6882
6.17978	16.5849
6.17242	16.4124
6.16508	16.5443
6.15776	16.6134
6.15045	16.4593
6.14317	16.4842
6.1359	16.5361
6.12864	16.5744
6.12141	16.8118
6.11419	17.0818
6.10699	16.822
6.0998	16.6269
6.09263	16.62
6.08549	16.6633
6.07835	16.9346
6.07123	17.0267
6.06413	16.8037
6.05705	17.0293
6.04998	17.6493
6.04293	17.3191
6.0359	16.9027
6.02888	16.9445
6.02187	17.0862
6.01489	17.2831
6.00792	17.2492
6.00096	17.2516
5.99403	17.5251
5.98711	17.686
5.9802	17.6671
5.97331	17.8552
5.96644	18.0211
5.95958	17.93
5.95274	17.9547
5.94591	18.1329
5.9391	18.6625
5.9323	18.6751
5.92552	18.3994
5.91876	18.3745
5.91201	18.3938
5.90528	18.6357
5.89856	19.1619
5.89186	19.3328
5.88517	19.5413
5.8785	19.7155
5.87184	19.3653
5.8652	19.4335
5.85857	19.4786
5.85196	19.5398
5.84536	19.615
5.83878	19.7919
5.83221	20.1472
5.82566	20.5928
5.81912	20.7128
5.81259	20.406
5.80608	20.2795
5.79959	20.3861
5.79311	20.4951
5.78665	20.6557
5.78019	20.794
5.77376	21.1155
5.76734	21.6876
5.76093	21.4509
5.75453	21.1896
5.74815	21.441
5.74179	21.4279
5.73543	21.3332
5.7291	21.3766
5.72277	21.5272
5.71646	21.6208
5.71017	21.733
5.70389	21.5615
5.69762	21.426
5.69136	21.4935
5.68513	21.5019
5.6789	21.5648
5.67268	21.6485
5.66648	21.5028
5.6603	21.4464
5.65413	21.4887
5.64797	21.559
5.64182	21.7047
5.63569	21.4202
5.62957	21.1504
5.62347	21.0662
5.61737	21.0647
5.61129	21.0222
5.60522	21.0257
5.59917	20.9676
5.59313	20.8859
5.5871	21.0175
5.58109	21.2401
5.57509	21.2821
5.5691	21.156
5.56312	21.1631
5.55716	21.2529
5.55121	21.3411
5.54528	21.3768
5.53935	21.4554
5.53344	21.5879
5.52754	21.8091
5.52166	22.0601
5.51578	22.2476
5.50992	22.3602
5.50407	22.5512
5.49823	22.7788
5.49241	22.8912
5.4866	23.0998
5.4808	23.4771
5.47501	23.6582
5.46923	23.8658
5.46347	24.034
5.45772	24.0273
5.45198	24.1512
5.44625	24.3721
5.44054	24.5857
5.43484	24.7774
5.42914	24.9714
5.42347	25.3009
5.4178	25.2906
5.41214	25.2432
5.4065	25.3591
5.40087	25.4195
5.39525	25.4732
5.38964	25.5823
5.38404	25.6828
5.37846	25.7517
5.37288	25.8046
5.36732	25.8145
5.36177	25.9556
5.35623	26.1982
5.35071	26.349
5.34519	26.2352
5.33968	26.1864
5.33419	26.2689
5.32871	26.2401
5.32324	26.2393
5.31778	26.2818
5.31233	26.3431
5.30689	26.4109
5.30147	26.3461
5.29605	26.35
5.29065	26.4487
5.28525	26.3948
5.27987	26.3337
5.2745	26.3507
5.26914	26.3778
5.26379	26.3517
5.25845	26.3148
5.25312	26.3109
5.24781	26.33
5.2425	26.3599
5.23721	26.3915
5.23192	26.296
5.22665	26.2308
5.22138	26.2469
5.21613	26.2797
5.21089	26.229
5.20566	26.1525
5.20044	26.1226
5.19522	26.0362
5.19002	25.9477
5.18483	25.9273
5.17965	25.9684
5.17448	25.9573
5.16933	25.9218
5.16418	25.8972
5.15904	25.8553
5.15391	25.8061
5.14879	25.8375
5.14368	25.8362
5.13859	25.7975
5.1335	25.7375
5.12842	25.7153
5.12335	25.7847
5.1183	25.7595
5.11325	25.7492
5.10821	25.8092
5.10318	25.8205
5.09817	25.7945
5.09316	25.7848
5.08816	25.823
5.08317	25.954
5.07819	25.9465
5.07322	25.9138
5.06826	25.9319
5.06331	25.9806
5.05837	26.0607
5.05344	26.1963
5.04852	26.2709
5.04361	26.301
5.03871	26.2589
5.03382	26.321
5.02894	26.4536
5.02406	26.6167
5.0192	26.6623
5.01435	26.6293
5.0095	26.6809
5.00467	26.8199
4.99984	26.9146
4.99502	26.9542
4.99021	26.9798
4.98542	27.018
4.98063	27.0971
4.97585	27.1976
4.97108	27.2706
4.96632	27.3635
4.96156	27.4519
4.95682	27.5256
4.95209	27.6214
4.94736	27.7184
4.94264	27.7477
4.93794	27.8061
4.93324	27.9197
4.92855	27.9833
4.92387	28.0506
4.9192	28.208
4.91453	28.3027
4.90988	28.3141
4.90524	28.3879
4.9006	28.5084
4.89597	28.6368
4.89135	28.7853
4.88674	28.8867
4.88214	28.9807
4.87755	29.0924
4.87296	29.2388
4.86839	29.4101
4.86382	29.5686
4.85926	29.6257
4.85471	29.6949
4.85017	29.8037
4.84564	29.9351
4.84111	30.0752
4.8366	30.2285
4.83209	30.3596
4.82759	30.4477
4.8231	30.5294
4.81862	30.6206
4.81415	30.7375
4.80968	30.8464
4.80522	30.9692
4.80077	31.1101
4.79633	31.2508
4.7919	31.4139
4.78747	31.5093
4.78306	31.6257
4.77865	31.7206
4.77425	31.8373
4.76986	32.0021
4.76547	32.1507
4.7611	32.2275
4.75673	32.3077
4.75237	32.418
4.74802	32.6189
4.74367	32.726
4.73934	32.7137
4.73501	32.8056
4.73069	32.9987
4.72638	33.0933
4.72207	33.1093
4.71777	33.1905
4.71348	33.2371
4.7092	33.3591
4.70493	33.48
4.70066	33.5211
4.69641	33.5753
4.69216	33.6237
4.68791	33.7099
4.68368	33.7918
4.67945	33.8338
4.67523	33.8655
4.67102	33.9371
4.66682	34.0082
4.66262	33.9543
4.65843	33.9262
4.65425	33.9758
4.65007	34.0104
4.64591	33.9643
4.64175	33.9425
4.6376	33.9389
4.63345	33.9201
4.62932	33.8922
4.62519	33.8348
4.62106	33.8323
4.61695	33.7922
4.61284	33.6294
4.60874	33.464
4.60465	33.3514
4.60056	33.2585
4.59648	33.2604
4.59241	33.178
4.58835	33.0195
4.58429	32.8897
4.58024	32.7105
4.5762	32.5485
4.57216	32.3668
4.56814	32.238
4.56411	32.19
4.5601	32.0222
4.55609	31.8313
4.55209	31.702
4.5481	31.5435
4.54411	31.3196
4.54013	31.131
4.53616	30.9896
4.5322	30.9111
4.52824	30.8426
4.52429	30.6728
4.52034	30.485
4.51641	30.3871
4.51247	30.2376
4.50855	30.0828
4.50463	29.9791
4.50072	29.885
4.49682	29.7629
4.49292	29.5857
4.48903	29.4406
4.48515	29.4051
4.48127	29.3413
4.4774	29.3289
4.47354	29.2213
4.46968	29.0614
4.46584	29.0641
4.46199	29.0995
4.45815	29.0106
4.45432	28.9438
4.4505	28.8999
4.44668	28.8452
4.44287	28.8077
4.43907	28.8213
4.43527	28.8672
4.43148	28.7658
4.4277	28.6729
4.42392	28.6791
4.42015	28.6582
4.41638	28.69
4.41262	28.6701
4.40887	28.6849
4.40513	28.7203
4.40139	28.753
4.39765	28.8378
4.39393	28.8656
4.39021	28.8339
4.38649	28.8056
4.38278	28.8315
4.37908	28.9482
4.37539	29.0346
4.3717	29.1028
4.36801	29.1265
4.36434	29.1473
4.36067	29.1949
4.357	29.2529
4.35335	29.288
4.34969	29.2603
4.34605	29.3595
4.34241	29.498
4.33877	29.5728
4.33514	29.669
4.33152	29.8225
4.32791	29.9835
4.3243	30.0457
4.32069	30.0624
4.3171	30.1562
4.31351	30.296
4.30992	30.4495
4.30634	30.6195
4.30277	30.6909
4.2992	30.7797
4.29564	30.9282
4.29208	31.123
4.28853	31.2728
4.28499	31.3218
4.28145	31.4253
4.27792	31.6021
4.27439	31.7314
4.27087	31.8084
4.26735	31.788
4.26384	31.8261
4.26034	31.8601
4.25684	31.9019
4.25335	32.1048
4.24986	32.3783
4.24638	32.6485
4.24291	32.8815
4.23944	33.0462
4.23598	33.2192
4.23252	33.3785
4.22906	33.4144
4.22562	33.4609
4.22218	33.5471
4.21874	33.5865
4.21531	33.6051
4.21189	33.6426
4.20847	33.6916
4.20506	33.7288
4.20165	33.7371
4.19825	33.8506
4.19485	34.0063
4.19146	34.1652
4.18807	34.3678
4.18469	34.5473
4.18132	34.6846
4.17795	34.8065
4.17458	35.0016
4.17123	35.2039
4.16787	35.3762
4.16453	35.5105
4.16118	35.6333
4.15785	35.7642
4.15451	35.8882
4.15119	35.9693
4.14787	36.1032
4.14455	36.2231
4.14124	36.3213
4.13794	36.4767
4.13464	36.6433
4.13134	36.719
4.12805	36.801
4.12477	36.9209
4.12149	37.0004
4.11822	37.0636
4.11495	37.1401
4.11168	37.2277
4.10843	37.3539
4.10517	37.4138
4.10192	37.4312
4.09868	37.5676
4.09545	37.6602
4.09221	37.6031
4.08899	37.6219
4.08576	37.6626
4.08255	37.6423
4.07933	37.6168
4.07613	37.5546
4.07292	37.5288
4.06973	37.5463
4.06654	37.5037
4.06335	37.523
4.06017	37.5528
4.05699	37.5185
4.05382	37.5052
4.05065	37.4825
4.04749	37.4637
4.04433	37.4738
4.04118	37.4937
4.03803	37.4098
4.03489	37.3415
4.03175	37.3097
4.02862	37.3167
4.02549	37.3407
4.02237	37.2497
4.01925	37.2204
4.01614	37.2155
4.01303	37.1586
4.00993	37.1271
4.00683	37.1403
4.00373	37.0912
4.00064	36.9882
3.99756	36.9676
3.99448	37.0564
3.9914	37.0702
3.98833	36.9256
3.98527	36.8144
3.98221	36.8256
3.97915	36.78
3.9761	36.7151
3.97305	36.7027
3.97001	36.6051
3.96697	36.4981
3.96394	36.404
3.96091	36.2788
3.95789	36.2047
3.95487	36.104
3.95186	36.0103
3.94885	35.923
3.94584	35.8262
3.94284	35.7329
3.93984	35.6282
3.93685	35.4471
3.93386	35.2855
3.93088	35.1973
3.9279	35.0844
3.92493	34.9125
3.92196	34.7491
3.919	34.5974
3.91604	34.3755
3.91308	34.1907
3.91013	34.0731
3.90718	33.9086
3.90424	33.7105
3.9013	33.5572
3.89837	33.4429
3.89544	33.2471
3.89252	32.9393
3.8896	32.6657
3.88668	32.5378
3.88377	32.3624
3.88086	32.1883
3.87796	32.0023
3.87506	31.7376
3.87217	31.5501
3.86928	31.4342
3.86639	31.2693
3.86351	31.1684
3.86064	30.9378
3.85776	30.7583
3.8549	30.6556
3.85203	30.4544
3.84917	30.3758
3.84631	30.3603
3.84346	30.3007
3.84062	30.2647
3.83777	30.1832
3.83494	30.2054
3.8321	30.2909
3.82927	30.3274
3.82644	30.3445
3.82362	30.3988
3.82081	30.5309
3.81799	30.6374
3.81518	30.7058
3.81238	30.843
3.80958	31.0206
3.80678	31.1789
3.80399	31.3032
3.8012	31.4035
3.79841	31.5873
3.79563	31.8376
3.79286	31.9972
3.79008	32.0801
3.78731	32.2383
3.78455	32.4287
3.78179	32.6046
3.77903	32.7028
3.77628	32.779
3.77353	32.9138
3.77079	33.0612
3.76805	33.2269
3.76531	33.3527
3.76258	33.4498
3.75985	33.5267
3.75713	33.5353
3.7544	33.5414
3.75169	33.5432
3.74898	33.6309
3.74627	33.7465
3.74356	33.8201
3.74086	33.82
3.73816	33.7821
3.73547	33.7781
3.73278	33.7686
3.7301	33.8126
3.72741	33.8957
3.72474	33.8804
3.72206	33.8851
3.71939	33.9005
3.71673	33.9599
3.71406	34.018
3.71141	33.9515
3.70875	33.942
3.7061	34.0488
3.70345	34.2005
3.70081	34.2339
3.69817	34.2208
3.69553	34.2501
3.6929	34.3184
3.69027	34.4146
3.68765	34.5026
3.68503	34.5322
3.68241	34.5654
3.6798	34.71
3.67719	34.9034
3.67458	34.991
3.67198	35.0505
3.66938	35.1448
3.66678	35.2927
3.66419	35.417
3.66161	35.5146
3.65902	35.6852
3.65644	35.8492
3.65387	35.9805
3.65129	36.0617
3.64872	36.1608
3.64616	36.3468
3.64359	36.4795
3.64103	36.5479
3.63848	36.7306
3.63593	36.8698
3.63338	37.0393
3.63084	37.1951
3.6283	37.3942
3.62576	37.5475
3.62322	37.5812
3.62069	37.6713
3.61817	37.8487
3.61564	37.9971
3.61312	38.0584
3.61061	38.1442
3.6081	38.2585
3.60559	38.3097
3.60308	38.3735
3.60058	38.4388
3.59808	38.4875
3.59558	38.5477
3.59309	38.6027
3.59061	38.6899
3.58812	38.8317
3.58564	38.9039
3.58316	38.8935
3.58069	38.9049
3.57822	38.9665
3.57575	38.9973
3.57328	38.9741
3.57082	39.0106
3.56836	39.0299
3.56591	39.0271
3.56346	39.0491
3.56101	39.13
3.55857	39.1449
3.55613	39.1132
3.55369	39.1836
3.55126	39.2656
3.54883	39.264
3.5464	39.2486
3.54397	39.2132
3.54155	39.2888
3.53914	39.4537
3.53672	39.4118
3.53431	39.3052
3.5319	39.3626
3.5295	39.4509
3.5271	39.5134
3.5247	39.5154
3.52231	39.4824
3.51991	39.4953
3.51753	39.5723
3.51514	39.6203
3.51276	39.5592
3.51038	39.5206
3.50801	39.5502
3.50563	39.5971
3.50327	39.621
3.5009	39.6324
3.49854	39.6301
3.49618	39.6456
3.49382	39.6604
3.49147	39.7285
3.48912	39.8456
3.48677	39.7995
3.48443	39.7659
3.48209	39.818
3.47975	39.8589
3.47742	39.8231
3.47509	39.7834
3.47276	39.7183
3.47044	39.6956
3.46812	39.7588
3.4658	39.7757
3.46348	39.7944
3.46117	39.7932
3.45886	39.7617
3.45656	39.7205
3.45425	39.7522
3.45195	39.8167
3.44966	39.7218
3.44736	39.6498
3.44507	39.6877
3.44279	39.6528
3.4405	39.5614
3.43822	39.5475
3.43594	39.564
3.43367	39.5306
3.43139	39.5391
3.42912	39.6059
3.42686	39.5703
3.42459	39.523
3.42233	39.5372
3.42007	39.4392
3.41782	39.4336
3.41557	39.4875
3.41332	39.5337
3.41108	39.5792
3.40883	39.5408
3.40659	39.5921
3.40435	39.613
3.40212	39.6583
3.39989	39.6897
3.39766	39.528
3.39544	39.5158
3.39322	39.6048
3.391	39.6475
3.38878	39.6939
3.38657	39.7081
3.38436	39.7002
3.38215	39.6384
3.37994	39.6258
3.37774	39.7371
3.37554	39.7603
3.37335	39.7263
3.37115	39.7114
3.36896	39.6513
3.36678	39.6679
3.36459	39.6833
3.36241	39.6178
3.36023	39.5908
3.35805	39.6723
3.35588	39.6655
3.35371	39.6593
3.35154	39.7878
3.34938	39.8429
3.34721	39.7503
3.34505	39.707
3.3429	39.7052
3.34074	39.6342
3.33859	39.6002
3.33644	39.6238
3.3343	39.5869
3.33215	39.5707
3.33001	39.5542
3.32788	39.5039
3.32574	39.4849
3.32361	39.5073
3.32148	39.5787
3.31936	39.6106
3.31723	39.5233
3.31511	39.5484
3.31299	39.5727
3.31088	39.5337
3.30876	39.532
3.30665	39.4819
3.30455	39.4097
3.30244	39.4432
3.30034	39.4786
3.29824	39.4649
3.29614	39.4601
3.29405	39.4262
3.29196	39.4178
3.28987	39.4633
3.28778	39.4546
3.2857	39.3483
3.28362	39.323
3.28154	39.3109
3.27946	39.3373
3.27739	39.3625
3.27532	39.2961
3.27325	39.2682
3.27119	39.2455
3.26913	39.2043
3.26707	39.1469
3.26501	39.1016
3.26295	39.1971
3.2609	39.0993
3.25885	38.9963
3.2568	39.0172
3.25476	39.0715
3.25272	39.1442
3.25068	39.124
3.24864	39.0339
3.24661	39.0685
3.24458	39.0629
3.24255	39.0515
3.24052	39.0176
3.2385	38.9689
3.23648	38.8944
3.23446	38.7943
3.23244	38.7481
3.23043	38.7992
3.22841	38.87
3.2264	38.9229
3.2244	38.9042
3.22239	38.7782
3.22039	38.7165
3.21839	38.6786
3.2164	38.6168
3.2144	38.5849
3.21241	38.6056
3.21042	38.6475
3.20844	38.6366
3.20645	38.5188
3.20447	38.4973
3.20249	38.5789
3.20051	38.568
3.19854	38.5059
3.19657	38.3888
3.1946	38.3655
3.19263	38.4062
3.19067	38.3931
3.1887	38.3924
3.18674	38.3703
3.18479	38.3792
3.18283	38.4087
3.18088	38.3523
3.17893	38.2705
3.17698	38.2424
3.17504	38.2591
3.17309	38.2062
3.17115	38.1054
3.16921	38.1528
3.16728	38.1907
3.16534	38.1464
3.16341	38.1228
3.16148	38.0612
3.15956	37.9726
3.15763	37.8953
3.15571	37.8893
3.15379	37.9003
3.15187	37.8911
3.14996	37.9767
3.14805	37.9639
3.14614	37.8789
3.14423	37.8611
3.14232	37.8417
3.14042	37.7466
3.13852	37.6346
3.13662	37.6259
3.13472	37.686
3.13283	37.7302
3.13094	37.7121
3.12905	37.6029
3.12716	37.5276
3.12528	37.5468
3.12339	37.5131
3.12151	37.4543
3.11964	37.378
3.11776	37.4457
3.11589	37.4668
3.11401	37.3997
3.11214	37.3296
3.11028	37.2095
3.10841	37.1453
3.10655	37.0976
3.10469	37.0725
3.10283	37.0539
3.10098	36.9676
3.09912	36.9487
3.09727	36.9729
3.09542	36.897
3.09358	36.8245
3.09173	36.8615
3.08989	36.8561
3.08805	36.8349
3.08621	36.7402
3.08437	36.6301
3.08254	36.5773
3.08071	36.5435
3.07888	36.5427
3.07705	36.5755
3.07523	36.641
3.0734	36.5591
3.07158	36.4924
3.06977	36.545
3.06795	36.448
3.06613	36.399
3.06432	36.3849
3.06251	36.3817
3.0607	36.2498
3.0589	36.179
3.0571	36.2495
3.05529	36.2368
3.05349	36.13
3.0517	36.0852
3.0499	36.0221
3.04811	36.1513
3.04632	36.1687
3.04453	36.0525
3.04274	36.0119
3.04096	35.9101
3.03918	35.7972
3.0374	35.7785
3.03562	35.8271
3.03384	35.8215
3.03207	35.8077
3.03029	35.7608
3.02852	35.6695
3.02676	35.5904
3.02499	35.5657
3.02323	35.4559
3.02146	35.4789
3.0197	35.5443
3.01795	35.4787
3.01619	35.3247
3.01444	35.2776
3.01269	35.3814
3.01094	35.3696
3.00919	35.2445
3.00744	35.1225
3.0057	35.0336
3.00396	34.929
3.00222	34.7835
3.00048	34.6313
2.99875	34.5959
2.99701	34.6497
2.99528	34.5864
2.99355	34.453
2.99183	34.3333
2.9901	34.3065
2.98838	34.2726
2.98666	34.2273
2.98494	34.2448
2.98322	34.0914
2.9815	33.8306
2.97979	33.78
2.97808	33.8888
2.97637	33.7718
2.97466	33.5227
2.97295	33.3896
2.97125	33.2825
2.96955	33.2151
2.96785	33.1371
2.96615	32.9952
2.96446	32.8675
2.96276	32.865
2.96107	32.7955
2.95938	32.7323
2.95769	32.6245
2.95601	32.4233
2.95432	32.266
2.95264	32.2043
2.95096	32.0683
2.94928	31.9044
2.9476	31.765
2.94593	31.684
2.94425	31.6574
2.94258	31.5509
2.94092	31.4137
2.93925	31.141
2.93758	30.9669
2.93592	30.9404
2.93426	30.9174
2.9326	30.7956
2.93094	30.7374
2.92928	30.5246
2.92763	30.2124
2.92598	30.0779
2.92433	30.0176
2.92268	29.7837
2.92103	29.5244
2.91939	29.3508
2.91775	29.3192
2.9161	29.2757
2.91447	28.8981
2.91283	28.5511
2.91119	28.3542
2.90956	28.1674
2.90793	27.8764
2.9063	27.6982
2.90467	27.4739
2.90304	27.1063
2.90142	26.7384
2.89979	26.3211
2.89817	25.9081
2.89656	25.4756
2.89494	25.078
2.89332	24.4963
2.89171	23.8838
2.8901	23.4768
2.88849	23.0237
2.88688	22.4058
2.88527	21.9272
2.88367	21.5226
2.88206	20.9824
2.88046	20.3991
2.87886	19.7604
2.87727	19.0516
2.87567	18.5595
2.87408	18.2444
2.87248	17.6781
2.87089	17.0634
2.8693	16.6674
2.86772	16.255
2.86613	15.7413
2.86455	15.279
2.86297	14.8465
2.86139	14.4089
2.85981	14.0221
2.85823	13.5777
2.85666	13.2249
2.85508	12.8515
2.85351	12.468
2.85194	12.202
2.85038	11.936
2.84881	11.5187
2.84724	11.1104
2.84568	10.7993
2.84412	10.5302
2.84256	10.2621
2.841	9.99724
2.83945	9.906
2.83789	9.78452
2.83634	9.48318
2.83479	9.39984
2.83324	9.32648
2.83169	8.98327
2.83015	8.56128
2.82861	8.34867
2.82706	8.1759
2.82552	8.08955
2.82398	8.06567
2.82245	7.90108
2.82091	7.63702
2.81938	7.48584
2.81784	7.41953
2.81631	7.35225
2.81479	7.29957
2.81326	7.12914
2.81173	6.9304
2.81021	6.88732
2.80869	6.86321
2.80716	6.83779
2.80565	6.90312
2.80413	6.93001
2.80261	6.81806
2.8011	6.73779
2.79959	6.90317
2.79808	7.0315
2.79657	7.01533
2.79506	7.30065
2.79355	7.60943
2.79205	7.74428
2.79055	8.09742
2.78904	8.58661
2.78754	9.09919
2.78605	9.62251
2.78455	10.301
2.78306	11.1157
2.78156	11.7012
2.78007	12.7131
2.77858	13.9734
2.77709	15.1005
2.77561	16.501
2.77412	17.9532
2.77264	19.411
2.77116	20.9799
2.76968	22.3959
2.7682	23.6668
2.76672	24.5698
2.76524	25.1829
2.76377	25.7665
2.7623	26.3235
2.76083	26.2522
2.75936	25.7272
2.75789	25.4484
2.75642	25.2268
2.75496	24.7653
2.7535	24.3165
2.75203	24.8215
2.75057	25.5889
2.74912	26.0647
2.74766	26.5254
2.7462	27.3737
2.74475	28.8126
2.7433	30.7409
2.74185	32.8464
2.7404	34.5224
2.73895	35.3632
2.7375	35.474
2.73606	35.6717
2.73462	36.0934
2.73318	36.4147
2.73174	36.9093
2.7303	37.1668
2.72886	37.1061
2.72742	37.2546
2.72599	37.9826
2.72456	38.876
2.72313	38.984
2.7217	39.2292
2.72027	39.5743
2.71884	38.9909
2.71742	38.776
2.71599	38.6763
2.71457	38.6143
2.71315	38.7833
2.71173	39.3283
2.71032	39.3615
2.7089	38.8868
2.70748	38.5354
2.70607	38.2766
2.70466	38.0231
2.70325	37.8646
2.70184	37.8576
2.70043	37.6561
2.69903	37.1986
2.69762	36.8548
2.69622	36.5013
2.69482	36.036
2.69342	35.196
2.69202	33.8666
2.69062	32.7554
2.68923	31.8318
2.68783	31.1475
2.68644	30.8471
2.68505	30.7021
2.68366	30.7196
2.68227	30.687
2.68089	30.8319
2.6795	31.516
2.67812	32.0152
2.67673	32.6089
2.67535	33.1452
2.67397	33.6976
2.6726	34.7926
2.67122	36.6597
2.66984	37.6204
2.66847	37.7475
2.6671	38.6645
2.66572	39.0481
2.66435	38.7496
2.66299	38.2381
2.66162	38.2914
2.66025	38.6031
2.65889	38.7633
2.65753	38.6226
2.65616	38.8667
2.65481	39.0223
2.65345	39.3928
2.65209	39.7325
2.65073	39.7167
2.64938	39.8073
2.64803	39.9785
2.64667	40.219
2.64532	40.3841
2.64397	40.2914
2.64263	40.4597
2.64128	40.4585
2.63994	40.3132
2.63859	40.2554
2.63725	40.3209
2.63591	40.4429
2.63457	40.59
2.63323	40.5097
2.6319	40.6751
2.63056	41.133
2.62923	40.8036
2.62789	40.5848
2.62656	40.7944
2.62523	40.2443
2.6239	40.0086
2.62258	40.1983
2.62125	40.6348
2.61993	40.6758
2.6186	40.3645
2.61728	40.7762
2.61596	40.6219
2.61464	40.1009
2.61332	40.0546
2.61201	39.8558
2.61069	39.9678
2.60938	40.1392
2.60807	40.205
2.60675	40.4698
2.60544	40.7773
2.60414	40.3015
2.60283	39.9762
2.60152	39.8587
2.60022	39.6523
2.59891	39.5622
2.59761	39.8358
2.59631	40.6359
2.59501	41.5852
2.59371	40.7835
2.59242	39.8001
2.59112	39.654
2.58983	39.8703
2.58853	40.0173
2.58724	40.0713
2.58595	39.857
2.58466	40.1576
2.58338	40.2324
2.58209	39.9285
2.5808	39.921
2.57952	39.6405
2.57824	39.7362
2.57695	40.0995
2.57567	39.9729
2.5744	39.9424
2.57312	40.0399
2.57184	39.6133
2.57057	39.696
2.56929	39.8408
2.56802	39.5819
2.56675	39.4979
2.56548	39.7294
2.56421	39.9308
2.56294	39.9592
2.56168	39.912
2.56041	39.7209
2.55915	39.4936
2.55789	39.3601
2.55662	39.383
2.55536	39.4817
2.5541	39.5984
2.55285	39.7357
2.55159	39.6877
2.55034	39.6066
2.54908	39.4935
2.54783	39.5124
2.54658	39.4969
2.54533	39.4978
2.54408	39.5966
2.54283	39.6466
2.54159	39.5159
2.54034	39.4306
2.5391	39.4532
2.53785	39.5073
2.53661	39.5454
2.53537	39.5205
2.53413	39.4507
2.53289	39.4156
2.53166	39.384
2.53042	39.3582
2.52919	39.3784
2.52795	39.3948
2.52672	39.2884
2.52549	39.338
2.52426	39.4278
2.52303	39.311
2.52181	39.2857
2.52058	39.324
2.51936	39.3644
2.51813	39.3298
2.51691	39.2689
2.51569	39.1962
2.51447	39.1835
2.51325	39.2252
2.51203	39.1876
2.51082	39.0825
2.5096	39.1227
2.50839	39.2023
2.50717	39.2474
2.50596	39.2369
2.50475	39.2021
2.50354	39.2026
2.50233	39.1362
2.50113	39.0881
2.49992	39.1184
2.49872	39.2005
2.49751	39.1807
2.49631	39.143
2.49511	39.1236
2.49391	39.178
2.49271	39.1825
2.49151	39.1709
2.49031	39.2276
2.48912	39.2765
2.48792	39.3025
2.48673	39.254
2.48554	39.1326
2.48435	39.1052
2.48316	39.1047
2.48197	39.1314
2.48078	39.1802
2.4796	39.0506
2.47841	38.978
2.47723	39.0475
2.47604	39.151
2.47486	39.2607
2.47368	39.2934
2.4725	39.1886
2.47132	39.1437
2.47014	39.0228
2.46897	39.0057
2.46779	39.0468
2.46662	39.1451
2.46545	39.2188
2.46427	39.2515
2.4631	39.2548
2.46193	39.3351
2.46077	39.3691
2.4596	39.4759
2.45843	39.5139
2.45727	39.2608
2.4561	39.1318
2.45494	39.2186
2.45378	39.3681
2.45262	39.4251
2.45146	39.2397
2.4503	39.2055
2.44914	39.3093
2.44799	39.4001
2.44683	39.5154
2.44568	39.5144
2.44452	39.4393
2.44337	39.4814
2.44222	39.5652
2.44107	39.4723
2.43992	39.3362
2.43877	39.3783
2.43763	39.4629
2.43648	39.5022
2.43534	39.4797
2.43419	39.5263
2.43305	39.5548
2.43191	39.5309
2.43077	39.4751
2.42963	39.4493
2.42849	39.5348
2.42736	39.5638
2.42622	39.5181
2.42509	39.4572
2.42395	39.4565
2.42282	39.4644
2.42169	39.49
2.42056	39.4719
2.41943	39.4946
2.4183	39.4815
2.41717	39.4406
2.41605	39.4799
2.41492	39.5443
2.4138	39.4323
2.41267	39.3465
2.41155	39.3533
2.41043	39.3376
2.40931	39.3416
2.40819	39.2784
2.40707	39.2447
2.40595	39.3407
2.40484	39.353
2.40372	39.4008
2.40261	39.3759
2.4015	39.2557
2.40039	39.2651
2.39928	39.2347
2.39817	39.2343
2.39706	39.4584
2.39595	39.3308
2.39484	39.0162
2.39374	38.9614
2.39263	38.9917
2.39153	38.9005
2.39043	38.705
2.38932	38.6104
2.38822	38.6724
2.38712	38.6023
2.38603	38.4242
2.38493	38.3561
2.38383	38.2212
2.38274	37.9931
2.38164	37.8728
2.38055	37.814
2.37946	37.8007
2.37836	37.7264
2.37727	37.5095
2.37618	37.3832
2.3751	37.2679
2.37401	37.0707
2.37292	37.0597
2.37184	37.0252
2.37075	36.9249
2.36967	36.827
2.36859	36.7846
2.3675	36.8524
2.36642	36.7935
2.36534	36.6637
2.36427	36.6579
2.36319	36.6779
2.36211	36.7422
2.36104	36.7584
2.35996	36.724
2.35889	36.8905
2.35781	36.9723
2.35674	37.0036
2.35567	37.0097
2.3546	36.9584
2.35353	37.1043
2.35247	37.3162
2.3514	37.4422
2.35033	37.4245
2.34927	37.4165
2.3482	37.5965
2.34714	37.805
2.34608	37.8558
2.34502	37.9582
2.34396	37.9175
2.3429	37.915
2.34184	37.972
2.34078	38.0553
2.33973	38.1683
2.33867	38.1982
2.33762	38.1097
2.33656	38.0281
2.33551	38.1185
2.33446	38.2573
2.33341	38.2948
2.33236	38.4101
2.33131	38.383
2.33026	38.1968
2.32922	38.121
2.32817	38.3336
2.32712	38.5267
2.32608	38.4195
2.32504	38.3177
2.324	38.3857
2.32295	38.297
2.32191	38.247
2.32087	38.3171
2.31984	38.2567
2.3188	38.2667
2.31776	38.344
2.31673	38.4084
2.31569	38.5346
2.31466	38.5234
2.31362	38.5363
2.31259	38.5089
2.31156	38.5197
2.31053	38.5919
2.3095	38.5915
2.30847	38.6387
2.30745	38.6425
2.30642	38.5466
2.3054	38.3524
2.30437	38.2458
2.30335	38.2908
2.30232	38.3139
2.3013	38.3292
2.30028	38.281
2.29926	38.2954
2.29824	38.3803
2.29722	38.3369
2.29621	38.2302
2.29519	38.1421
2.29417	38.0216
2.29316	38.0994
2.29215	38.1801
2.29113	38.2216
2.29012	38.3542
2.28911	38.4232
2.2881	38.4847
2.28709	38.675
2.28608	38.7613
2.28507	38.5482
2.28407	38.5523
2.28306	38.7562
2.28206	38.6794
2.28105	38.5492
2.28005	38.5373
2.27905	38.6646
2.27805	38.631
2.27705	38.6557
2.27605	38.7641
2.27505	38.7266
2.27405	38.6882
2.27305	38.6033
2.27206	38.4821
2.27106	38.4601
2.27007	38.5058
2.26907	38.5521
2.26808	38.5628
2.26709	38.5498
2.2661	38.4437
2.26511	38.3206
2.26412	38.2495
2.26313	38.3544
2.26214	38.346
2.26116	38.1494
2.26017	38.1751
2.25919	38.1631
2.2582	38.0121
2.25722	37.8188
2.25624	37.7612
2.25526	37.7692
2.25428	37.5152
2.2533	37.2355
2.25232	37.0487
2.25134	37.1505
2.25036	37.0208
2.24939	36.8254
2.24841	36.7598
2.24744	36.6265
2.24646	36.6071
2.24549	36.6621
2.24452	36.3968
2.24355	36.235
2.24257	36.3966
2.24161	36.6506
2.24064	36.7323
2.23967	36.789
2.2387	36.8981
2.23774	36.9861
2.23677	36.989
2.23581	37.0563
2.23484	37.2042
2.23388	37.2946
2.23292	37.3329
2.23196	37.4082
2.231	37.5004
2.23004	37.4192
2.22908	37.2441
2.22812	37.1674
2.22716	37.2131
2.22621	37.1222
2.22525	37.0398
2.2243	37.0686
2.22334	37.0305
2.22239	37.1111
2.22144	37.185
2.22049	37.0236
2.21953	36.6969
2.21859	36.586
2.21764	36.512
2.21669	36.3427
2.21574	36.2821
2.21479	36.1699
2.21385	36.0591
2.2129	35.8772
2.21196	35.6259
2.21102	35.461
2.21007	35.3553
2.20913	35.3376
2.20819	35.3499
2.20725	35.3613
2.20631	35.4044
2.20537	35.4497
2.20444	35.5476
2.2035	35.701
2.20256	35.8407
2.20163	35.8881
2.20069	35.961
2.19976	36.0649
2.19883	36.2861
2.19789	36.4529
2.19696	36.5885
2.19603	36.7205
2.1951	36.6972
2.19417	36.6974
2.19325	36.7105
2.19232	36.8335
2.19139	36.9548
2.19047	36.9908
2.18954	37.0359
2.18862	36.938
2.18769	36.9864
2.18677	36.9979
2.18585	36.9912
2.18493	36.9918
2.18401	36.991
2.18309	36.9997
2.18217	36.9829
2.18125	36.9577
2.18033	36.9363
2.17942	36.9822
2.1785	37.0822
2.17759	37.1627
2.17667	37.1534
2.17576	37.0408
2.17485	36.9255
2.17393	36.8573
2.17302	36.7452
2.17211	36.727
2.1712	36.731
2.17029	36.7095
2.16939	36.7518
2.16848	36.6804
2.16757	36.7611
2.16667	36.9079
2.16576	36.8686
2.16486	36.7709
2.16395	36.845
2.16305	36.7999
2.16215	36.6677
2.16125	36.7257
2.16035	36.8172
2.15945	36.8761
2.15855	36.91
2.15765	36.7507
2.15675	36.8323
2.15586	36.8511
2.15496	36.6636
2.15406	36.6076
2.15317	36.4997
2.15228	36.47
2.15138	36.4973
2.15049	36.6416
2.1496	36.6867
2.14871	36.6255
2.14782	36.7148
2.14693	36.6169
2.14604	36.376
2.14515	36.2532
2.14427	36.3555
2.14338	36.5299
2.14249	36.5361
2.14161	36.5843
2.14072	36.4228
2.13984	36.3914
2.13896	36.665
2.13808	36.5983
2.13719	36.4143
2.13631	36.228
2.13543	36.162
2.13455	36.2898
2.13368	36.2313
2.1328	36.1668
2.13192	36.307
2.13105	36.3273
2.13017	36.2284
2.1293	36.1302
2.12842	36.1213
2.12755	36.1624
2.12668	36.309
2.1258	36.3039
2.12493	36.1786
2.12406	36.196
2.12319	36.26
2.12232	36.2501
2.12145	36.1696
2.12059	36.1571
2.11972	36.2041
2.11885	36.2392
2.11799	36.1664
2.11712	35.9872
2.11626	35.8123
2.1154	35.8352
2.11453	35.8881
2.11367	35.731
2.11281	35.712
2.11195	35.8857
2.11109	35.8443
2.11023	35.6097
2.10937	35.7372
2.10851	35.6991
2.10766	35.619
2.1068	35.8113
2.10594	35.7574
2.10509	35.6574
2.10423	35.685
2.10338	35.7073
2.10253	35.4652
2.10168	35.3346
2.10082	35.4459
2.09997	35.5224
2.09912	35.6117
2.09827	35.5669
2.09742	35.5899
2.09658	35.548
2.09573	35.554
2.09488	35.6115
2.09404	35.5721
2.09319	35.496
2.09235	35.2172
2.0915	35.2224
2.09066	35.2792
2.08982	35.3404
2.08897	35.3393
2.08813	35.2078
2.08729	35.1601
2.08645	35.1916
2.08561	35.0565
2.08477	34.8117
2.08394	34.7458
2.0831	34.9038
2.08226	35.121
2.08143	35.3
2.08059	35.1947
2.07976	34.9764
2.07892	34.9098
2.07809	34.9529
2.07726	34.8493
2.07643	34.7198
2.07559	34.7704
2.07476	34.9102
2.07393	34.8683
2.0731	34.4127
2.07228	34.1076
2.07145	34.3238
2.07062	34.6666
2.06979	35.0564
2.06897	34.8413
2.06814	34.6274
2.06732	34.8787
2.06649	34.8882
2.06567	34.8627
2.06485	34.7418
2.06403	34.5776
2.0632	34.5348
2.06238	34.5302
2.06156	34.4351
2.06074	34.3683
2.05993	34.575
2.05911	34.3965
2.05829	34.0777
2.05747	34.2079
2.05666	34.3457
2.05584	34.4807
2.05503	34.3037
2.05421	34.0491
2.0534	34.2737
2.05259	34.6761
2.05177	34.6037
2.05096	34.2256
2.05015	34.3226
2.04934	34.6049
2.04853	34.4511
2.04772	34.0166
2.04691	34.1115
2.04611	34.3601
2.0453	34.3645
2.04449	34.1002
2.04369	33.8432
2.04288	33.857
2.04208	33.6336
2.04127	33.7539
2.04047	33.9777
2.03967	33.7608
2.03886	33.5271
2.03806	33.7748
2.03726	34.1027
2.03646	34.1017
2.03566	33.7984
2.03486	33.6994
2.03407	33.666
2.03327	33.718
2.03247	33.7399
2.03167	33.6685
2.03088	33.6279
2.03008	33.5985
2.02929	33.8017
2.0285	33.7676
2.0277	33.5554
2.02691	33.5877
2.02612	33.6776
2.02533	33.4645
2.02453	33.3166
2.02374	33.301
2.02295	33.0297
2.02217	33.0232
2.02138	33.2812
2.02059	33.6405
2.0198	33.6075
2.01902	33.4409
2.01823	33.4363
2.01744	33.389
2.01666	33.2666
2.01588	33.3732
2.01509	33.2388
2.01431	33.0052
2.01353	32.9641
2.01275	32.9584
2.01196	32.9943
2.01118	33.0989
2.0104	33.0524
2.00963	33.1583
2.00885	33.1685
2.00807	33.08
2.00729	32.9587
2.00651	32.7915
2.00574	32.8593
2.00496	32.9102
2.00419	32.9131
2.00341	32.8885
2.00264	32.573
2.00187	32.5192
2.00109	32.6859
2.00032	32.8763
