Name: Chlorite (Mg,Al)_6(Si,Al)_4O_10(OH)_8
Type: Mineral
Class: Silicates
Subclass: Phyllosilicates
Particle Size: 125-500um
Sample No.: PS-12C
Owner: JPL
Wavelength range: IR
Origin: USA, California
Collected by Ward's
Description: 





Measurement: Hemispherical reflectance
First Column: X
Second Column: Y
X Units:  Wavelength (micrometers)
Y Units:  Reflectance (percent)
First X Value: 15.3853
Last X Value: 2.00032
Number of X Values: 2256
Additional information: ps12ca.txt
 
15.3853	9.63852
15.3397	9.62402
15.2945	9.45645
15.2495	9.34565
15.2048	9.17348
15.1603	8.80908
15.1161	8.26312
15.0722	7.78453
15.0285	7.39195
14.9851	7.16125
14.9419	7.06391
14.8989	6.9861
14.8563	6.82689
14.8138	6.68695
14.7716	6.72528
14.7296	6.71942
14.6879	6.73613
14.6464	6.54371
14.6052	6.31875
14.5641	6.3114
14.5233	6.22373
14.4828	6.03282
14.4424	5.69687
14.4023	5.40253
14.3624	5.15944
14.3227	4.8795
14.2833	4.73424
14.244	4.56642
14.205	4.49424
14.1662	4.48591
14.1276	4.57904
14.0892	4.68922
14.051	4.75264
14.0131	4.73223
13.9753	4.65574
13.9377	4.59035
13.9004	4.46644
13.8632	4.54469
13.8262	4.80852
13.7895	4.89149
13.7529	4.82481
13.7165	4.68868
13.6803	4.69883
13.6443	4.71649
13.6085	4.66171
13.5729	4.62716
13.5374	4.67791
13.5022	4.56141
13.4671	4.65106
13.4322	4.88456
13.3975	4.93875
13.363	5.02565
13.3286	5.16394
13.2944	5.52624
13.2604	5.5507
13.2266	5.54277
13.193	5.85462
13.1595	5.85896
13.1262	5.59006
13.093	5.48701
13.06	5.34589
13.0272	5.07865
12.9946	4.87181
12.9621	4.6377
12.9298	4.48079
12.8976	4.22101
12.8656	3.99134
12.8337	3.85102
12.8021	3.59828
12.7705	3.36782
12.7391	3.16759
12.7079	2.94836
12.6769	2.7817
12.6459	2.73618
12.6152	2.65874
12.5845	2.41588
12.5541	2.2788
12.5238	2.42248
12.4936	2.33019
12.4635	2.34213
12.4337	2.19734
12.4039	2.0687
12.3743	1.99099
12.3448	1.91979
12.3155	1.97356
12.2863	2.13868
12.2573	2.28818
12.2284	2.41319
12.1996	2.38034
12.171	2.36522
12.1425	2.42292
12.1141	2.40633
12.0859	2.42142
12.0578	2.44424
12.0298	2.52763
12.0019	2.71142
11.9742	2.75766
11.9466	2.72094
11.9192	2.8616
11.8918	3.16149
11.8646	3.35196
11.8375	3.36586
11.8106	3.40439
11.7837	3.51996
11.757	3.71208
11.7304	3.90149
11.7039	4.06654
11.6776	4.27957
11.6513	4.39998
11.6252	4.53211
11.5992	4.6264
11.5733	4.68224
11.5475	4.75143
11.5219	4.79626
11.4963	4.89361
11.4709	5.06152
11.4455	5.29812
11.4203	5.34894
11.3952	5.40753
11.3702	5.59064
11.3454	5.74714
11.3206	5.73454
11.2959	5.80131
11.2714	5.94833
11.2469	6.07799
11.2226	6.3455
11.1983	6.516
11.1742	6.61868
11.1502	6.74854
11.1263	6.89575
11.1024	7.07606
11.0787	7.32953
11.0551	7.52452
11.0316	7.62843
11.0081	7.81093
10.9848	7.94468
10.9616	8.18947
10.9385	8.38572
10.9154	8.65401
10.8925	9.06079
10.8697	9.41683
10.8469	9.7867
10.8243	10.1419
10.8017	10.4766
10.7793	10.8078
10.7569	11.2382
10.7346	11.8502
10.7125	12.5238
10.6904	13.1512
10.6684	13.8
10.6465	14.4897
10.6247	15.1986
10.6029	15.9559
10.5813	16.844
10.5597	17.6708
10.5383	18.2138
10.5169	18.6914
10.4956	19.1824
10.4744	19.6945
10.4533	20.052
10.4323	20.3163
10.4113	20.6195
10.3904	20.7066
10.3697	20.5687
10.349	20.4949
10.3284	20.3876
10.3078	20.2035
10.2874	20.1257
10.267	20.1968
10.2467	20.4287
10.2265	20.7691
10.2064	21.2842
10.1863	21.7922
10.1663	22.3042
10.1464	23.0713
10.1266	23.8251
10.1069	24.5096
10.0872	25.1428
10.0676	25.8362
10.0481	26.2967
10.0287	26.8789
10.0093	27.5682
9.99005	28.0857
9.97084	28.7249
9.95169	29.5083
9.93263	30.2294
9.91364	30.9268
9.89472	31.7587
9.87587	32.7208
9.8571	33.5259
9.83839	34.2384
9.81976	34.893
9.80119	35.5725
9.78271	36.2482
9.76428	36.7329
9.74592	37.0024
9.72764	37.1909
9.70943	37.291
9.69128	36.9752
9.6732	36.2133
9.65518	35.254
9.63724	34.126
9.61935	32.8767
9.60155	31.5617
9.5838	30.2014
9.56611	28.8504
9.5485	27.5842
9.53094	26.4283
9.51345	25.4857
9.49604	24.7044
9.47867	24.0388
9.46137	23.6371
9.44414	23.4572
9.42697	23.4355
9.40986	23.5001
9.39281	23.682
9.37583	23.9628
9.35891	23.9549
9.34204	23.5782
9.32524	22.8178
9.3085	21.6588
9.29182	20.1866
9.27519	18.4286
9.25863	16.5622
9.24213	14.8156
9.22568	13.2602
9.2093	11.9512
9.19297	10.7995
9.17669	9.85708
9.16048	8.90568
9.14433	7.93736
9.12823	7.06599
9.11218	6.26623
9.0962	5.6495
9.08027	5.17318
9.06439	4.57336
9.04858	3.97802
9.03281	3.44731
9.0171	3.07769
9.00145	2.81972
8.98585	2.64101
8.9703	2.39745
8.9548	2.00237
8.93937	1.66566
8.92398	1.48722
8.90865	1.28287
8.89337	1.03519
8.87814	0.841119
8.86296	0.831063
8.84784	0.864986
8.83277	0.751823
8.81774	0.645029
8.80277	0.50989
8.78786	0.509944
8.77298	0.465355
8.75816	0.275852
8.7434	0.285197
8.72868	0.226657
8.714	0.159125
8.69938	0.123301
8.68481	0.112789
8.67029	0.255604
8.65581	0.236653
8.64139	0.148921
8.62701	0.271376
8.61268	0.34053
8.5984	0.238007
8.58416	0.119272
8.56997	0.100418
8.55583	0.221321
8.54174	0.239473
8.52769	0.145965
8.51368	0.203036
8.49973	0.262363
8.48582	0.190075
8.47195	0.227743
8.45813	0.430408
8.44436	0.49645
8.43062	0.497075
8.41693	0.568524
8.4033	0.529077
8.3897	0.447388
8.37614	0.534687
8.36264	0.517874
8.34917	0.556655
8.33574	0.718327
8.32236	0.799894
8.30903	0.761525
8.29573	0.742212
8.28248	0.792921
8.26927	0.832224
8.2561	0.976519
8.24298	1.06032
8.2299	1.11458
8.21685	1.22448
8.20385	1.31276
8.19089	1.2251
8.17797	1.21136
8.16509	1.33259
8.15225	1.32731
8.13946	1.33248
8.1267	1.41088
8.11398	1.5229
8.10131	1.65368
8.08867	1.71325
8.07606	1.76314
8.0635	1.73376
8.05099	1.68315
8.0385	1.71761
8.02606	1.81683
8.01366	1.8585
8.00129	1.84316
7.98896	1.96889
7.97667	2.14596
7.96442	2.14929
7.9522	2.17018
7.94002	2.2023
7.92788	2.24959
7.91578	2.31925
7.90371	2.39859
7.89168	2.4449
7.87969	2.50488
7.86773	2.57122
7.85581	2.60498
7.84392	2.64579
7.83207	2.66785
7.82026	2.67485
7.80849	2.76788
7.79674	2.81566
7.78503	2.80678
7.77337	2.80667
7.76173	2.9024
7.75012	3.00738
7.73856	3.05356
7.72703	3.11002
7.71553	3.16
7.70406	3.15362
7.69263	3.21855
7.68123	3.3172
7.66987	3.34021
7.65855	3.39588
7.64725	3.42265
7.63598	3.43169
7.62475	3.52376
7.61356	3.59623
7.60239	3.65163
7.59126	3.6878
7.58017	3.70472
7.5691	3.78329
7.55806	3.81834
7.54707	3.8859
7.5361	3.87522
7.52516	3.87387
7.51425	3.87622
7.50338	3.9353
7.49253	3.99476
7.48172	4.007
7.47094	4.11664
7.46019	4.23667
7.44947	4.29879
7.43879	4.32319
7.42813	4.34695
7.4175	4.42395
7.4069	4.43141
7.39634	4.4251
7.3858	4.40945
7.37529	4.51779
7.36482	4.69259
7.35437	4.76558
7.34396	4.77443
7.33357	4.79196
7.32321	4.84353
7.31288	4.93013
7.30258	5.0212
7.29231	5.09038
7.28207	5.22615
7.27185	5.21921
7.26167	5.26023
7.25152	5.31844
7.24139	5.36612
7.23129	5.4465
7.22122	5.46804
7.21117	5.5233
7.20116	5.55594
7.19117	5.57088
7.18121	5.664
7.17128	5.7336
7.16137	5.7125
7.1515	5.75143
7.14164	5.79854
7.13182	5.88692
7.12203	5.97403
7.11225	6.08653
7.10251	6.16916
7.0928	6.16497
7.08311	6.20129
7.07344	6.24883
7.06381	6.22174
7.0542	6.28807
7.04461	6.37447
7.03506	6.41063
7.02552	6.44061
7.01601	6.50709
7.00653	6.49894
6.99708	6.53987
6.98765	6.5958
6.97824	6.64039
6.96886	6.73513
6.95951	6.82482
6.95018	6.90776
6.94087	6.9217
6.9316	6.89327
6.92234	6.91305
6.91311	7.01534
6.90391	7.05407
6.89473	7.03071
6.88557	7.0843
6.87644	7.09642
6.86733	7.17619
6.85824	7.3379
6.84918	7.30444
6.84015	7.2216
6.83114	7.21171
6.82215	7.28175
6.81319	7.43158
6.80424	7.47853
6.79532	7.48811
6.78643	7.47628
6.77756	7.51683
6.76871	7.6083
6.75989	7.60794
6.75109	7.58761
6.74231	7.55233
6.73355	7.55001
6.72482	7.60968
6.71611	7.72059
6.70742	7.7125
6.69875	7.68935
6.69011	7.79579
6.68149	7.93258
6.67289	7.93673
6.66431	7.83956
6.65576	7.78996
6.64722	7.88161
6.63871	8.02244
6.63022	7.93479
6.62175	7.87025
6.61331	7.94736
6.60488	7.96119
6.59648	8.00717
6.5881	8.0274
6.57974	8.09477
6.5714	8.18317
6.56308	8.09857
6.55478	8.00201
6.54651	7.96371
6.53825	7.99059
6.53001	7.97285
6.5218	7.97438
6.51361	8.01558
6.50544	7.94479
6.49729	7.90425
6.48915	7.92449
6.48104	7.85648
6.47295	7.74384
6.46488	7.66287
6.45683	7.64788
6.4488	7.57614
6.44079	7.50639
6.4328	7.53217
6.42482	7.47108
6.41687	7.55681
6.40894	7.53028
6.40103	7.39827
6.39314	7.27926
6.38526	7.19095
6.37741	7.20998
6.36957	7.25386
6.36176	7.16003
6.35396	7.05051
6.34618	7.06195
6.33843	7.04449
6.33069	6.9576
6.32297	6.96317
6.31527	6.91509
6.30758	6.87528
6.29992	6.90917
6.29227	6.94558
6.28465	6.87835
6.27704	6.87674
6.26945	6.99632
6.26188	6.94661
6.25432	6.90238
6.24679	6.86093
6.23927	6.93384
6.23177	7.0845
6.22429	7.12759
6.21683	7.13533
6.20938	7.08549
6.20195	6.96468
6.19454	6.99626
6.18715	7.21518
6.17978	7.25234
6.17242	7.17953
6.16508	7.19161
6.15776	7.26527
6.15045	7.23207
6.14317	7.2302
6.1359	7.25171
6.12864	7.25496
6.12141	7.32392
6.11419	7.42463
6.10699	7.38632
6.0998	7.35073
6.09263	7.40677
6.08549	7.42907
6.07835	7.54894
6.07123	7.5688
6.06413	7.46228
6.05705	7.56813
6.04998	7.75121
6.04293	7.71649
6.0359	7.63783
6.02888	7.6641
6.02187	7.73244
6.01489	7.71392
6.00792	7.65093
6.00096	7.66166
5.99403	7.77165
5.98711	7.7965
5.9802	7.71536
5.97331	7.72612
5.96644	7.78093
5.95958	7.70187
5.95274	7.67955
5.94591	7.75138
5.9391	7.85198
5.9323	7.83458
5.92552	7.78973
5.91876	7.7802
5.91201	7.77247
5.90528	7.69215
5.89856	7.77131
5.89186	7.9117
5.88517	8.03166
5.8785	8.03679
5.87184	8.01421
5.8652	8.08143
5.85857	8.06034
5.85196	8.12027
5.84536	8.15647
5.83878	8.18229
5.83221	8.20601
5.82566	8.24913
5.81912	8.29342
5.81259	8.31202
5.80608	8.36706
5.79959	8.53926
5.79311	8.66663
5.78665	8.73401
5.78019	8.82656
5.77376	8.97377
5.76734	9.12156
5.76093	9.12107
5.75453	9.14598
5.74815	9.22211
5.74179	9.21625
5.73543	9.32086
5.7291	9.44482
5.72277	9.52869
5.71646	9.56475
5.71017	9.63675
5.70389	9.72309
5.69762	9.77369
5.69136	9.73044
5.68513	9.7666
5.6789	9.91944
5.67268	9.88243
5.66648	9.78389
5.6603	9.85246
5.65413	9.96588
5.64797	10.0728
5.64182	10.0928
5.63569	9.97492
5.62957	9.96839
5.62347	9.99458
5.61737	10.0621
5.61129	10.1325
5.60522	10.1588
5.59917	10.1506
5.59313	10.1665
5.5871	10.1673
5.58109	10.2352
5.57509	10.3068
5.5691	10.2973
5.56312	10.3837
5.55716	10.3943
5.55121	10.3869
5.54528	10.4417
5.53935	10.4964
5.53344	10.5345
5.52754	10.5753
5.52166	10.549
5.51578	10.6066
5.50992	10.7085
5.50407	10.767
5.49823	10.8632
5.49241	10.9243
5.4866	10.9591
5.4808	11.0143
5.47501	11.0933
5.46923	11.222
5.46347	11.3686
5.45772	11.452
5.45198	11.5245
5.44625	11.671
5.44054	11.7829
5.43484	11.8503
5.42914	11.9918
5.42347	12.145
5.4178	12.2233
5.41214	12.2715
5.4065	12.3693
5.40087	12.4857
5.39525	12.5677
5.38964	12.6625
5.38404	12.8104
5.37846	12.8784
5.37288	12.925
5.36732	13.0424
5.36177	13.1567
5.35623	13.3182
5.35071	13.4022
5.34519	13.3694
5.33968	13.3568
5.33419	13.4467
5.32871	13.5384
5.32324	13.5816
5.31778	13.5974
5.31233	13.6501
5.30689	13.6994
5.30147	13.6763
5.29605	13.7531
5.29065	13.8019
5.28525	13.7324
5.27987	13.8309
5.2745	13.8709
5.26914	13.802
5.26379	13.8353
5.25845	13.97
5.25312	14.0076
5.24781	14.0116
5.2425	14.0295
5.23721	14.0222
5.23192	14.0745
5.22665	14.0989
5.22138	14.1128
5.21613	14.0909
5.21089	14.0487
5.20566	14.1021
5.20044	14.2146
5.19522	14.2525
5.19002	14.2612
5.18483	14.1951
5.17965	14.1099
5.17448	14.1458
5.16933	14.1677
5.16418	14.1729
5.15904	14.2136
5.15391	14.1379
5.14879	14.0882
5.14368	14.141
5.13859	14.1624
5.1335	14.1682
5.12842	14.2164
5.12335	14.2163
5.1183	14.1548
5.11325	14.1986
5.10821	14.2076
5.10318	14.1316
5.09817	14.1091
5.09316	14.1668
5.08816	14.2199
5.08317	14.1985
5.07819	14.209
5.07322	14.2455
5.06826	14.2598
5.06331	14.2112
5.05837	14.1898
5.05344	14.2204
5.04852	14.2261
5.04361	14.173
5.03871	14.1622
5.03382	14.1817
5.02894	14.1648
5.02406	14.2387
5.0192	14.2757
5.01435	14.2733
5.0095	14.2749
5.00467	14.2669
4.99984	14.2644
4.99502	14.2277
4.99021	14.2046
4.98542	14.2405
4.98063	14.317
4.97585	14.3238
4.97108	14.3395
4.96632	14.3694
4.96156	14.3993
4.95682	14.4973
4.95209	14.6708
4.94736	14.7542
4.94264	14.7076
4.93794	14.7512
4.93324	14.8216
4.92855	14.9297
4.92387	15.048
4.9192	15.0887
4.91453	15.1368
4.90988	15.2389
4.90524	15.371
4.9006	15.4614
4.89597	15.5447
4.89135	15.647
4.88674	15.7272
4.88214	15.766
4.87755	15.7742
4.87296	15.8661
4.86839	16.0427
4.86382	16.1789
4.85926	16.2136
4.85471	16.2319
4.85017	16.3115
4.84564	16.4905
4.84111	16.6284
4.8366	16.7388
4.83209	16.8514
4.82759	16.9135
4.8231	17.0189
4.81862	17.1464
4.81415	17.2888
4.80968	17.3985
4.80522	17.51
4.80077	17.6782
4.79633	17.6953
4.7919	17.8011
4.78747	17.9939
4.78306	18.0414
4.77865	18.1043
4.77425	18.2558
4.76986	18.3855
4.76547	18.4359
4.7611	18.5449
4.75673	18.7285
4.75237	18.8416
4.74802	18.9346
4.74367	19.0229
4.73934	19.2216
4.73501	19.3602
4.73069	19.5063
4.72638	19.7446
4.72207	19.9378
4.71777	20.036
4.71348	20.1208
4.7092	20.2633
4.70493	20.4214
4.70066	20.5943
4.69641	20.8225
4.69216	21.0541
4.68791	21.2151
4.68368	21.4059
4.67945	21.6008
4.67523	21.7443
4.67102	21.9247
4.66682	22.1155
4.66262	22.2966
4.65843	22.4589
4.65425	22.6861
4.65007	22.9054
4.64591	23.0714
4.64175	23.26
4.6376	23.4523
4.63345	23.5387
4.62932	23.6476
4.62519	23.8369
4.62106	24.0343
4.61695	24.1487
4.61284	24.2441
4.60874	24.345
4.60465	24.5268
4.60056	24.7205
4.59648	24.8922
4.59241	25.0968
4.58835	25.3354
4.58429	25.6019
4.58024	25.8403
4.5762	26.0264
4.57216	26.1805
4.56814	26.3551
4.56411	26.5558
4.5601	26.7357
4.55609	26.8983
4.55209	26.9641
4.5481	27.0739
4.54411	27.2628
4.54013	27.4279
4.53616	27.46
4.5322	27.4881
4.52824	27.5929
4.52429	27.7275
4.52034	27.8715
4.51641	28.0094
4.51247	28.1082
4.50855	28.1531
4.50463	28.165
4.50072	28.2348
4.49682	28.3091
4.49292	28.3676
4.48903	28.4523
4.48515	28.6098
4.48127	28.7309
4.4774	28.7821
4.47354	28.8547
4.46968	28.9767
4.46584	29.0505
4.46199	29.0948
4.45815	29.2174
4.45432	29.3568
4.4505	29.3854
4.44668	29.429
4.44287	29.4819
4.43907	29.5611
4.43527	29.6232
4.43148	29.622
4.4277	29.6945
4.42392	29.8435
4.42015	29.9074
4.41638	29.9275
4.41262	29.951
4.40887	30.1047
4.40513	30.1903
4.40139	30.1856
4.39765	30.2095
4.39393	30.3146
4.39021	30.4113
4.38649	30.4176
4.38278	30.4771
4.37908	30.5494
4.37539	30.5565
4.3717	30.5987
4.36801	30.7161
4.36434	30.7958
4.36067	30.7702
4.357	30.898
4.35335	30.9657
4.34969	30.8998
4.34605	30.8879
4.34241	30.9891
4.33877	31.0935
4.33514	31.1798
4.33152	31.2
4.32791	31.28
4.3243	31.3354
4.32069	31.3692
4.3171	31.4167
4.31351	31.4217
4.30992	31.4194
4.30634	31.4228
4.30277	31.5296
4.2992	31.6642
4.29564	31.6983
4.29208	31.7152
4.28853	31.8061
4.28499	31.8449
4.28145	31.7791
4.27792	31.7085
4.27439	31.591
4.27087	31.4437
4.26735	31.3354
4.26384	31.4083
4.26034	31.5901
4.25684	31.7161
4.25335	31.8782
4.24986	32.0076
4.24638	32.1909
4.24291	32.3643
4.23944	32.4202
4.23598	32.525
4.23252	32.6616
4.22906	32.6726
4.22562	32.6294
4.22218	32.6802
4.21874	32.8094
4.21531	32.868
4.21189	32.8675
4.20847	32.8966
4.20506	32.9359
4.20165	32.9873
4.19825	33.038
4.19485	33.0357
4.19146	33.1178
4.18807	33.1611
4.18469	33.1776
4.18132	33.2609
4.17795	33.266
4.17458	33.3115
4.17123	33.3458
4.16787	33.4306
4.16453	33.4972
4.16118	33.5507
4.15785	33.6054
4.15451	33.6258
4.15119	33.6682
4.14787	33.7003
4.14455	33.6673
4.14124	33.7606
4.13794	33.7865
4.13464	33.7644
4.13134	33.8319
4.12805	33.8568
4.12477	33.8108
4.12149	33.8369
4.11822	33.9439
4.11495	34.034
4.11168	34.0433
4.10843	34.0786
4.10517	34.1162
4.10192	34.1227
4.09868	34.1285
4.09545	34.2139
4.09221	34.249
4.08899	34.218
4.08576	34.2664
4.08255	34.3193
4.07933	34.3623
4.07613	34.3844
4.07292	34.414
4.06973	34.4572
4.06654	34.479
4.06335	34.5456
4.06017	34.5672
4.05699	34.5746
4.05382	34.6055
4.05065	34.6
4.04749	34.5509
4.04433	34.5506
4.04118	34.6291
4.03803	34.6435
4.03489	34.6504
4.03175	34.6825
4.02862	34.6696
4.02549	34.6594
4.02237	34.6865
4.01925	34.6838
4.01614	34.6391
4.01303	34.6673
4.00993	34.7592
4.00683	34.894
4.00373	34.8703
4.00064	34.8176
3.99756	34.8345
3.99448	34.8265
3.9914	34.8119
3.98833	34.8327
3.98527	34.8333
3.98221	34.8789
3.97915	34.8759
3.9761	34.8617
3.97305	34.9007
3.97001	34.9236
3.96697	34.9178
3.96394	34.9
3.96091	34.9152
3.95789	34.8795
3.95487	34.8691
3.95186	34.8578
3.94885	34.8436
3.94584	34.8646
3.94284	34.878
3.93984	34.8609
3.93685	34.8698
3.93386	34.907
3.93088	34.9108
3.9279	34.895
3.92493	34.9501
3.92196	34.9698
3.919	34.9243
3.91604	34.8805
3.91308	34.8836
3.91013	34.8797
3.90718	34.9147
3.90424	34.8973
3.9013	34.8126
3.89837	34.853
3.89544	34.9586
3.89252	34.88
3.8896	34.7232
3.88668	34.7739
3.88377	34.8848
3.88086	34.8464
3.87796	34.8349
3.87506	34.7859
3.87217	34.7419
3.86928	34.7778
3.86639	34.7513
3.86351	34.7171
3.86064	34.6981
3.85776	34.6157
3.8549	34.5764
3.85203	34.5966
3.84917	34.5585
3.84631	34.4446
3.84346	34.4032
3.84062	34.5123
3.83777	34.4779
3.83494	34.3088
3.8321	34.1579
3.82927	34.1595
3.82644	34.2445
3.82362	34.261
3.82081	34.2064
3.81799	34.1684
3.81518	34.1471
3.81238	34.1063
3.80958	34.1173
3.80678	34.0936
3.80399	34.03
3.8012	34.0031
3.79841	34.0037
3.79563	33.9654
3.79286	33.9883
3.79008	34.0144
3.78731	34.0269
3.78455	34.0207
3.78179	33.9671
3.77903	33.928
3.77628	33.9075
3.77353	33.8736
3.77079	33.9456
3.76805	34.0127
3.76531	33.9341
3.76258	33.8996
3.75985	33.843
3.75713	33.7715
3.7544	33.7863
3.75169	33.8139
3.74898	33.751
3.74627	33.6551
3.74356	33.6041
3.74086	33.5769
3.73816	33.6498
3.73547	33.6926
3.73278	33.6468
3.7301	33.5897
3.72741	33.593
3.72474	33.6064
3.72206	33.5726
3.71939	33.5115
3.71673	33.422
3.71406	33.4372
3.71141	33.3652
3.70875	33.3087
3.7061	33.3335
3.70345	33.3557
3.70081	33.332
3.69817	33.2297
3.69553	33.1853
3.6929	33.1355
3.69027	33.0665
3.68765	33.0332
3.68503	33.0761
3.68241	33.0431
3.6798	32.919
3.67719	32.9322
3.67458	32.9922
3.67198	32.9627
3.66938	32.8687
3.66678	32.842
3.66419	32.8518
3.66161	32.7895
3.65902	32.6935
3.65644	32.6449
3.65387	32.6817
3.65129	32.7234
3.64872	32.6428
3.64616	32.5326
3.64359	32.482
3.64103	32.4745
3.63848	32.383
3.63593	32.3124
3.63338	32.3286
3.63084	32.3171
3.6283	32.2506
3.62576	32.1004
3.62322	32.0894
3.62069	32.1001
3.61817	31.9572
3.61564	31.8161
3.61312	31.7377
3.61061	31.6913
3.6081	31.7068
3.60559	31.7192
3.60308	31.652
3.60058	31.5109
3.59808	31.4612
3.59558	31.3959
3.59309	31.2749
3.59061	31.2365
3.58812	31.1688
3.58564	31.04
3.58316	30.9685
3.58069	30.9475
3.57822	30.8172
3.57575	30.7262
3.57328	30.6929
3.57082	30.5918
3.56836	30.4211
3.56591	30.3758
3.56346	30.3382
3.56101	30.2988
3.55857	30.238
3.55613	30.0953
3.55369	30.0223
3.55126	30.0197
3.54883	30.0417
3.5464	29.9809
3.54397	29.9033
3.54155	29.8134
3.53914	29.7336
3.53672	29.6624
3.53431	29.5653
3.5319	29.4384
3.5295	29.3828
3.5271	29.3692
3.5247	29.242
3.52231	29.0857
3.51991	29.0478
3.51753	29.0824
3.51514	29.0154
3.51276	28.8731
3.51038	28.8126
3.50801	28.7836
3.50563	28.6916
3.50327	28.6816
3.5009	28.6491
3.49854	28.5106
3.49618	28.4691
3.49382	28.4464
3.49147	28.3611
3.48912	28.321
3.48677	28.3414
3.48443	28.2341
3.48209	28.0676
3.47975	28.0636
3.47742	28.11
3.47509	28.0418
3.47276	27.889
3.47044	27.8232
3.46812	27.7794
3.4658	27.6977
3.46348	27.6483
3.46117	27.661
3.45886	27.7023
3.45656	27.6627
3.45425	27.4931
3.45195	27.5198
3.44966	27.4613
3.44736	27.3315
3.44507	27.2533
3.44279	27.2347
3.4405	27.2368
3.43822	27.1896
3.43594	27.1191
3.43367	27.0402
3.43139	26.9549
3.42912	26.9562
3.42686	26.9
3.42459	26.8211
3.42233	26.7609
3.42007	26.6747
3.41782	26.6382
3.41557	26.613
3.41332	26.512
3.41108	26.528
3.40883	26.4394
3.40659	26.283
3.40435	26.2754
3.40212	26.1694
3.39989	26.0399
3.39766	25.9581
3.39544	25.899
3.39322	25.872
3.391	25.8854
3.38878	25.7917
3.38657	25.7111
3.38436	25.646
3.38215	25.5436
3.37994	25.4625
3.37774	25.3459
3.37554	25.2405
3.37335	25.1823
3.37115	25.1868
3.36896	25.1879
3.36678	25.131
3.36459	24.984
3.36241	24.9082
3.36023	24.7791
3.35805	24.6569
3.35588	24.6012
3.35371	24.4912
3.35154	24.3135
3.34938	24.1276
3.34721	24.0677
3.34505	24.0998
3.3429	24.0306
3.34074	23.9985
3.33859	23.8765
3.33644	23.708
3.3343	23.6824
3.33215	23.6428
3.33001	23.6484
3.32788	23.7435
3.32574	23.7261
3.32361	23.6004
3.32148	23.5352
3.31936	23.4725
3.31723	23.3779
3.31511	23.2943
3.31299	23.3419
3.31088	23.3463
3.30876	23.2217
3.30665	23.1113
3.30455	23.1316
3.30244	23.0504
3.30034	22.8704
3.29824	22.8444
3.29614	22.7988
3.29405	22.7864
3.29196	22.7534
3.28987	22.6865
3.28778	22.5956
3.2857	22.4847
3.28362	22.3795
3.28154	22.3293
3.27946	22.3044
3.27739	22.2217
3.27532	22.151
3.27325	22.1581
3.27119	22.1023
3.26913	22.0719
3.26707	22.0841
3.26501	22.0546
3.26295	21.95
3.2609	21.8131
3.25885	21.8483
3.2568	21.8264
3.25476	21.7956
3.25272	21.779
3.25068	21.6916
3.24864	21.6805
3.24661	21.7102
3.24458	21.6663
3.24255	21.6224
3.24052	21.5676
3.2385	21.5185
3.23648	21.4323
3.23446	21.3148
3.23244	21.2282
3.23043	21.228
3.22841	21.1301
3.2264	20.9755
3.2244	20.8764
3.22239	20.866
3.22039	20.7159
3.21839	20.6444
3.2164	20.6846
3.2144	20.5451
3.21241	20.4404
3.21042	20.3446
3.20844	20.2183
3.20645	20.1114
3.20447	19.9382
3.20249	19.7582
3.20051	19.6321
3.19854	19.5799
3.19657	19.5561
3.1946	19.4303
3.19263	19.3784
3.19067	19.424
3.1887	19.2955
3.18674	19.0402
3.18479	18.8911
3.18283	18.79
3.18088	18.649
3.17893	18.5576
3.17698	18.4158
3.17504	18.287
3.17309	18.1462
3.17115	18.0137
3.16921	18.0145
3.16728	17.9466
3.16534	17.8253
3.16341	17.7506
3.16148	17.6335
3.15956	17.4146
3.15763	17.2164
3.15571	17.1542
3.15379	17.1123
3.15187	17.0131
3.14996	16.92
3.14805	16.8502
3.14614	16.7125
3.14423	16.5878
3.14232	16.4591
3.14042	16.4067
3.13852	16.3162
3.13662	16.2077
3.13472	16.1215
3.13283	15.9458
3.13094	15.778
3.12905	15.7432
3.12716	15.6637
3.12528	15.4834
3.12339	15.3465
3.12151	15.2655
3.11964	15.2436
3.11776	15.2188
3.11589	15.0752
3.11401	14.9533
3.11214	14.8195
3.11028	14.645
3.10841	14.4771
3.10655	14.3725
3.10469	14.2462
3.10283	14.1372
3.10098	14.0385
3.09912	13.9564
3.09727	13.9197
3.09542	13.8262
3.09358	13.6156
3.09173	13.4632
3.08989	13.3412
3.08805	13.1312
3.08621	12.8829
3.08437	12.73
3.08254	12.7423
3.08071	12.7287
3.07888	12.578
3.07705	12.3402
3.07523	12.2422
3.0734	12.2125
3.07158	12.1201
3.06977	11.9763
3.06795	11.8697
3.06613	11.8134
3.06432	11.6205
3.06251	11.4129
3.0607	11.3695
3.0589	11.3335
3.0571	11.2393
3.05529	11.2013
3.05349	11.0638
3.0517	10.7273
3.0499	10.4636
3.04811	10.3014
3.04632	10.3097
3.04453	10.3278
3.04274	10.3096
3.04096	10.2506
3.03918	10.0669
3.0374	9.85767
3.03562	9.79783
3.03384	9.78769
3.03207	9.58005
3.03029	9.35199
3.02852	9.27243
3.02676	9.1934
3.02499	9.19772
3.02323	9.17153
3.02146	9.14019
3.0197	9.09392
3.01795	8.87948
3.01619	8.59041
3.01444	8.54505
3.01269	8.5225
3.01094	8.41997
3.00919	8.2879
3.00744	8.1725
3.0057	8.07913
3.00396	8.09197
3.00222	8.12207
3.00048	7.93603
2.99875	7.70193
2.99701	7.54638
2.99528	7.53713
2.99355	7.52269
2.99183	7.39807
2.9901	7.2018
2.98838	7.17954
2.98666	7.16445
2.98494	7.07205
2.98322	6.99395
2.9815	7.06705
2.97979	7.05251
2.97808	6.97162
2.97637	7.0267
2.97466	7.0014
2.97295	6.97998
2.97125	6.88541
2.96955	6.77884
2.96785	6.77993
2.96615	6.6712
2.96446	6.47797
2.96276	6.45179
2.96107	6.55877
2.95938	6.44769
2.95769	6.4077
2.95601	6.50002
2.95432	6.39701
2.95264	6.30696
2.95096	6.37249
2.94928	6.43218
2.9476	6.45772
2.94593	6.36863
2.94425	6.22137
2.94258	6.17466
2.94092	6.15144
2.93925	6.15739
2.93758	6.08462
2.93592	6.0017
2.93426	6.02313
2.9326	6.03264
2.93094	6.00443
2.92928	5.96272
2.92763	6.00936
2.92598	6.01291
2.92433	5.91879
2.92268	5.92938
2.92103	5.99157
2.91939	6.12401
2.91775	6.16603
2.9161	6.15856
2.91447	5.96615
2.91283	5.9128
2.91119	6.05387
2.90956	6.20263
2.90793	6.21295
2.9063	6.1655
2.90467	6.09749
2.90304	6.18244
2.90142	6.31153
2.89979	6.34139
2.89817	6.46489
2.89656	6.48502
2.89494	6.51531
2.89332	6.64038
2.89171	6.70242
2.8901	6.81792
2.88849	6.97261
2.88688	7.02636
2.88527	7.18762
2.88367	7.27355
2.88206	7.20904
2.88046	7.19273
2.87886	7.2168
2.87727	7.26722
2.87567	7.34019
2.87408	7.39062
2.87248	7.46581
2.87089	7.50109
2.8693	7.56142
2.86772	7.59541
2.86613	7.5951
2.86455	7.73274
2.86297	7.87342
2.86139	7.85612
2.85981	7.67934
2.85823	7.54313
2.85666	7.50442
2.85508	7.4683
2.85351	7.40751
2.85194	7.4302
2.85038	7.35826
2.84881	7.21177
2.84724	7.25517
2.84568	7.22442
2.84412	7.25999
2.84256	7.21328
2.841	7.1557
2.83945	7.13486
2.83789	7.03859
2.83634	6.77052
2.83479	6.57673
2.83324	6.55218
2.83169	6.68899
2.83015	6.83688
2.82861	6.78615
2.82706	6.67784
2.82552	6.50967
2.82398	6.44053
2.82245	6.56011
2.82091	6.59672
2.81938	6.41696
2.81784	6.32807
2.81631	6.37155
2.81479	6.44568
2.81326	6.5132
2.81173	6.43354
2.81021	6.3417
2.80869	6.32852
2.80716	6.38555
2.80565	6.39913
2.80413	6.37215
2.80261	6.37993
2.8011	6.41087
2.79959	6.46542
2.79808	6.44248
2.79657	6.45086
2.79506	6.52051
2.79355	6.71702
2.79205	6.85387
2.79055	6.87711
2.78904	6.93641
2.78754	6.97818
2.78605	6.96409
2.78455	6.99536
2.78306	7.29823
2.78156	7.38487
2.78007	7.48171
2.77858	7.86584
2.77709	8.04302
2.77561	8.16001
2.77412	8.30361
2.77264	8.57684
2.77116	8.89459
2.76968	9.14027
2.7682	9.23965
2.76672	9.36476
2.76524	9.45294
2.76377	9.56438
2.7623	9.59277
2.76083	9.76206
2.75936	9.96727
2.75789	10.074
2.75642	10.2246
2.75496	10.4599
2.7535	10.5018
2.75203	10.5059
2.75057	10.628
2.74912	10.8087
2.74766	10.8752
2.7462	10.9652
2.74475	11.0148
2.7433	11.2299
2.74185	11.4066
2.7404	11.5885
2.73895	11.8563
2.7375	12.0077
2.73606	11.9281
2.73462	11.8774
2.73318	11.947
2.73174	11.869
2.7303	11.7444
2.72886	11.7151
2.72742	11.8015
2.72599	11.8814
2.72456	11.8868
2.72313	11.693
2.7217	11.5823
2.72027	11.6981
2.71884	11.6727
2.71742	11.6592
2.71599	11.7741
2.71457	12.1773
2.71315	12.7962
2.71173	13.8401
2.71032	15.2041
2.7089	16.7416
2.70748	18.6407
2.70607	20.8527
2.70466	22.8597
2.70325	24.4166
2.70184	25.6157
2.70043	26.3143
2.69903	26.8319
2.69762	27.2225
2.69622	27.6665
2.69482	28.2239
2.69342	28.5786
2.69202	28.9505
2.69062	29.4515
2.68923	29.8636
2.68783	30.2001
2.68644	30.5245
2.68505	30.7512
2.68366	31.1891
2.68227	31.5973
2.68089	31.7341
2.6795	31.9484
2.67812	32.2784
2.67673	32.5485
2.67535	32.5814
2.67397	32.6272
2.6726	32.8455
2.67122	33.2389
2.66984	33.3484
2.66847	33.2732
2.6671	33.5037
2.66572	33.6286
2.66435	33.7059
2.66299	33.6247
2.66162	33.6149
2.66025	33.6593
2.65889	33.6858
2.65753	33.5563
2.65616	33.5148
2.65481	33.5023
2.65345	33.5668
2.65209	33.5947
2.65073	33.6296
2.64938	33.6909
2.64803	33.6295
2.64667	33.5505
2.64532	33.6999
2.64397	33.8407
2.64263	33.8184
2.64128	33.8325
2.63994	33.9038
2.63859	33.9238
2.63725	34.0371
2.63591	34.0293
2.63457	34.0741
2.63323	34.2166
2.6319	34.4093
2.63056	34.5475
2.62923	34.2962
2.62789	34.2324
2.62656	34.4264
2.62523	34.294
2.6239	34.1758
2.62258	34.1489
2.62125	34.2521
2.61993	34.2834
2.6186	34.0399
2.61728	33.9775
2.61596	33.8923
2.61464	33.7513
2.61332	33.6586
2.61201	33.7398
2.61069	33.7922
2.60938	33.546
2.60807	33.5246
2.60675	33.6408
2.60544	33.6429
2.60414	33.4172
2.60283	33.2672
2.60152	33.0438
2.60022	32.9297
2.59891	32.9606
2.59761	33.0326
2.59631	33.159
2.59501	33.3812
2.59371	33.1861
2.59242	32.8874
2.59112	32.7989
2.58983	32.6864
2.58853	32.5766
2.58724	32.7067
2.58595	32.7038
2.58466	32.6361
2.58338	32.6235
2.58209	32.4855
2.5808	32.4255
2.57952	32.3506
2.57824	32.4329
2.57695	32.4227
2.57567	32.2467
2.5744	32.3169
2.57312	32.4454
2.57184	32.375
2.57057	32.4155
2.56929	32.5053
2.56802	32.4766
2.56675	32.3816
2.56548	32.408
2.56421	32.5887
2.56294	32.6752
2.56168	32.7672
2.56041	32.7339
2.55915	32.6758
2.55789	32.5879
2.55662	32.5998
2.55536	32.6027
2.5541	32.6688
2.55285	32.9023
2.55159	32.9874
2.55034	32.9669
2.54908	32.8807
2.54783	32.9091
2.54658	32.996
2.54533	33.1394
2.54408	33.2525
2.54283	33.2423
2.54159	33.1537
2.54034	33.1063
2.5391	33.1835
2.53785	33.33
2.53661	33.3833
2.53537	33.2442
2.53413	33.2245
2.53289	33.2143
2.53166	33.2211
2.53042	33.2929
2.52919	33.3212
2.52795	33.2441
2.52672	33.1633
2.52549	33.2456
2.52426	33.3225
2.52303	33.2792
2.52181	33.2657
2.52058	33.3522
2.51936	33.3427
2.51813	33.2622
2.51691	33.2926
2.51569	33.2847
2.51447	33.3473
2.51325	33.4597
2.51203	33.3799
2.51082	33.2848
2.5096	33.3513
2.50839	33.4442
2.50717	33.3471
2.50596	33.4037
2.50475	33.5791
2.50354	33.6363
2.50233	33.6365
2.50113	33.6376
2.49992	33.6065
2.49872	33.6159
2.49751	33.5611
2.49631	33.4916
2.49511	33.5523
2.49391	33.5741
2.49271	33.6456
2.49151	33.7234
2.49031	33.6288
2.48912	33.5971
2.48792	33.5375
2.48673	33.4685
2.48554	33.4445
2.48435	33.5826
2.48316	33.6794
2.48197	33.5038
2.48078	33.4259
2.4796	33.3429
2.47841	33.295
2.47723	33.4703
2.47604	33.5178
2.47486	33.3919
2.47368	33.3989
2.4725	33.3765
2.47132	33.2773
2.47014	33.4043
2.46897	33.542
2.46779	33.6094
2.46662	33.6812
2.46545	33.6794
2.46427	33.7306
2.4631	33.9733
2.46193	34.0808
2.46077	34.0186
2.4596	34.1462
2.45843	34.4263
2.45727	34.5319
2.4561	34.7081
2.45494	35.0101
2.45378	35.0887
2.45262	35.2401
2.45146	35.4925
2.4503	35.5932
2.44914	35.543
2.44799	35.735
2.44683	36.0501
2.44568	36.1933
2.44452	36.2744
2.44337	36.2936
2.44222	36.3784
2.44107	36.5219
2.43992	36.5863
2.43877	36.5718
2.43763	36.6226
2.43648	36.7687
2.43534	36.9588
2.43419	37.1046
2.43305	37.0397
2.43191	36.9612
2.43077	36.8748
2.42963	36.9915
2.42849	37.1534
2.42736	37.3573
2.42622	37.6333
2.42509	37.797
2.42395	37.8514
2.42282	37.9167
2.42169	38.0051
2.42056	38.0353
2.41943	38.0889
2.4183	38.2953
2.41717	38.3053
2.41605	38.3233
2.41492	38.3287
2.4138	38.2179
2.41267	37.9564
2.41155	37.8114
2.41043	37.687
2.40931	37.4836
2.40819	37.4084
2.40707	37.1875
2.40595	36.8097
2.40484	36.4077
2.40372	36.1677
2.40261	36.0896
2.4015	35.8754
2.40039	35.7007
2.39928	35.5738
2.39817	35.278
2.39706	35.1233
2.39595	35.0362
2.39484	34.8541
2.39374	34.6004
2.39263	34.5579
2.39153	34.5418
2.39043	34.4113
2.38932	34.2895
2.38822	34.32
2.38712	34.3624
2.38603	34.415
2.38493	34.4387
2.38383	34.4858
2.38274	34.4714
2.38164	34.4064
2.38055	34.3815
2.37946	34.5027
2.37836	34.5715
2.37727	34.6193
2.37618	34.6106
2.3751	34.4087
2.37401	34.281
2.37292	34.2278
2.37184	34.2023
2.37075	34.0199
2.36967	33.7851
2.36859	33.6936
2.3675	33.4559
2.36642	33.1254
2.36534	32.8806
2.36427	32.6518
2.36319	32.449
2.36211	32.1351
2.36104	31.7871
2.35996	31.5872
2.35889	31.3707
2.35781	31.0303
2.35674	30.8732
2.35567	30.7626
2.3546	30.5712
2.35353	30.3379
2.35247	29.9505
2.3514	29.7475
2.35033	29.7156
2.34927	29.6462
2.3482	29.431
2.34714	29.1951
2.34608	29.0409
2.34502	28.7835
2.34396	28.5346
2.3429	28.3757
2.34184	28.0957
2.34078	27.8853
2.33973	27.8087
2.33867	27.6094
2.33762	27.4999
2.33656	27.3755
2.33551	27.3193
2.33446	27.2897
2.33341	27.127
2.33236	26.9954
2.33131	27.0713
2.33026	27.0946
2.32922	26.9022
2.32817	26.8903
2.32712	27.0755
2.32608	27.3464
2.32504	27.4638
2.324	27.4712
2.32295	27.4796
2.32191	27.5318
2.32087	27.665
2.31984	27.6743
2.3188	27.7942
2.31776	28.0672
2.31673	28.4169
2.31569	28.6429
2.31466	28.8373
2.31362	29.0827
2.31259	29.2595
2.31156	29.2743
2.31053	29.564
2.3095	29.8579
2.30847	30.0451
2.30745	30.3717
2.30642	30.4848
2.3054	30.3961
2.30437	30.4301
2.30335	30.4564
2.30232	30.4451
2.3013	30.3341
2.30028	30.3118
2.29926	30.3816
2.29824	30.4882
2.29722	30.4937
2.29621	30.4913
2.29519	30.5699
2.29417	30.7416
2.29316	30.9613
2.29215	31.1006
2.29113	31.3027
2.29012	31.6855
2.28911	32.1566
2.2881	32.41
2.28709	32.6981
2.28608	33.2213
2.28507	33.6577
2.28407	34.0443
2.28306	34.6586
2.28206	35.2421
2.28105	35.4754
2.28005	35.6597
2.27905	35.952
2.27805	36.2006
2.27705	36.4846
2.27605	36.5685
2.27505	36.5219
2.27405	36.59
2.27305	36.5505
2.27206	36.7145
2.27106	36.8761
2.27007	36.7236
2.26907	36.7115
2.26808	36.664
2.26709	36.6431
2.2661	36.7065
2.26511	36.6181
2.26412	36.5901
2.26313	36.6986
2.26214	36.7038
2.26116	36.501
2.26017	36.3783
2.25919	36.4202
2.2582	36.4407
2.25722	36.3364
2.25624	36.2364
2.25526	36.1594
2.25428	36.0912
2.2533	35.9533
2.25232	35.687
2.25134	35.5059
2.25036	35.4864
2.24939	35.5269
2.24841	35.3814
2.24744	35.4271
2.24646	35.69
2.24549	35.8036
2.24452	36.123
2.24355	36.4696
2.24257	36.9248
2.24161	37.474
2.24064	38.0958
2.23967	38.6412
2.2387	39.1006
2.23774	39.7084
2.23677	40.4209
2.23581	40.9924
2.23484	41.6602
2.23388	42.3945
2.23292	43.0944
2.23196	43.8133
2.231	44.4439
2.23004	44.8597
2.22908	45.4678
2.22812	46.0895
2.22716	46.4926
2.22621	46.9484
2.22525	47.4242
2.2243	47.7531
2.22334	48.1369
2.22239	48.579
2.22144	48.9206
2.22049	49.2101
2.21953	49.4863
2.21859	49.9145
2.21764	50.267
2.21669	50.5192
2.21574	50.7571
2.21479	51.0193
2.21385	51.2979
2.2129	51.586
2.21196	51.8774
2.21102	52.0853
2.21007	52.2914
2.20913	52.4944
2.20819	52.7884
2.20725	52.9386
2.20631	53.0502
2.20537	53.1888
2.20444	53.4253
2.2035	53.6463
2.20256	53.7726
2.20163	53.8573
2.20069	53.9223
2.19976	54.0931
2.19883	54.4031
2.19789	54.587
2.19696	54.6045
2.19603	54.6983
2.1951	54.9553
2.19417	55.0061
2.19325	55.1409
2.19232	55.3075
2.19139	55.4565
2.19047	55.6308
2.18954	55.8485
2.18862	55.9911
2.18769	55.9491
2.18677	55.8998
2.18585	56.0376
2.18493	56.2346
2.18401	56.4777
2.18309	56.7017
2.18217	56.8381
2.18125	56.8932
2.18033	56.9001
2.17942	57.0854
2.1785	57.2092
2.17759	57.2684
2.17667	57.3667
2.17576	57.5375
2.17485	57.6581
2.17393	57.6984
2.17302	57.7947
2.17211	57.8057
2.1712	57.9188
2.17029	58.174
2.16939	58.3178
2.16848	58.2668
2.16757	58.1399
2.16667	58.1044
2.16576	58.1902
2.16486	58.4203
2.16395	58.5854
2.16305	58.5535
2.16215	58.5419
2.16125	58.5689
2.16035	58.6564
2.15945	58.8066
2.15855	58.9049
2.15765	58.8563
2.15675	58.7192
2.15586	58.7902
2.15496	58.9885
2.15406	59.084
2.15317	59.1292
2.15228	59.0991
2.15138	59.1222
2.15049	59.1387
2.1496	59.159
2.14871	59.1843
2.14782	59.2124
2.14693	59.3751
2.14604	59.4712
2.14515	59.3748
2.14427	59.3839
2.14338	59.3879
2.14249	59.5238
2.14161	59.5854
2.14072	59.5314
2.13984	59.5366
2.13896	59.5281
2.13808	59.5433
2.13719	59.5074
2.13631	59.452
2.13543	59.493
2.13455	59.5496
2.13368	59.4051
2.1328	59.3037
2.13192	59.4977
2.13105	59.6429
2.13017	59.5757
2.1293	59.5754
2.12842	59.4345
2.12755	59.1782
2.12668	59.1073
2.1258	59.1056
2.12493	59.1503
2.12406	59.1125
2.12319	59.0685
2.12232	59.0109
2.12145	59.0717
2.12059	59.2003
2.11972	59.191
2.11885	59.133
2.11799	59.103
2.11712	59.0819
2.11626	58.9728
2.1154	58.8092
2.11453	58.8372
2.11367	58.8242
2.11281	58.7594
2.11195	58.8728
2.11109	59.0348
2.11023	59.0625
2.10937	59.0593
2.10851	59.1875
2.10766	59.1269
2.1068	59.0592
2.10594	59.1155
2.10509	59.1823
2.10423	59.1807
2.10338	59.1736
2.10253	59.3432
2.10168	59.5377
2.10082	59.5216
2.09997	59.5927
2.09912	59.7336
2.09827	59.7898
2.09742	59.9122
2.09658	59.9997
2.09573	60.0415
2.09488	60.307
2.09404	60.4769
2.09319	60.5174
2.09235	60.4291
2.0915	60.5619
2.09066	60.7952
2.08982	60.7903
2.08897	60.7587
2.08813	60.7481
2.08729	60.6967
2.08645	60.9336
2.08561	60.9411
2.08477	60.8225
2.08394	60.8023
2.0831	60.7504
2.08226	60.6935
2.08143	60.7011
2.08059	60.5143
2.07976	60.472
2.07892	60.5669
2.07809	60.7935
2.07726	60.9316
2.07643	60.6953
2.07559	60.3795
2.07476	60.5901
2.07393	60.7372
2.0731	60.4151
2.07228	59.9661
2.07145	60.0485
2.07062	60.5129
2.06979	60.4458
2.06897	59.7987
2.06814	59.946
2.06732	60.3193
2.06649	60.0329
2.06567	59.9418
2.06485	59.8937
2.06403	59.806
2.0632	59.6233
2.06238	59.5029
2.06156	59.6431
2.06074	59.7498
2.05993	59.561
2.05911	59.5943
2.05829	59.5876
2.05747	59.3241
2.05666	59.1013
2.05584	58.9311
2.05503	59.0225
2.05421	59.0993
2.0534	58.8044
2.05259	58.6541
2.05177	58.6684
2.05096	58.5566
2.05015	58.484
2.04934	58.3708
2.04853	58.1752
2.04772	58.0296
2.04691	57.8831
2.04611	57.8645
2.0453	57.8091
2.04449	57.8323
2.04369	57.6799
2.04288	57.5118
2.04208	57.3437
2.04127	57.1756
2.04047	57.0034
2.03967	57.0073
2.03886	56.8944
2.03806	56.7149
2.03726	56.5346
2.03646	56.4752
2.03566	56.4436
2.03486	56.2375
2.03407	56.0736
2.03327	55.9477
2.03247	55.7179
2.03167	55.6692
2.03088	55.5056
2.03008	55.232
2.02929	55.2378
2.0285	55.0808
2.0277	54.893
2.02691	54.8054
2.02612	54.6848
2.02533	54.5366
2.02453	54.2858
2.02374	54.0713
2.02295	53.9537
2.02217	53.7052
2.02138	53.2911
2.02059	53.1607
2.0198	53.1613
2.01902	52.9645
2.01823	52.8604
2.01744	52.9222
2.01666	52.8725
2.01588	52.6648
2.01509	52.5114
2.01431	52.4206
2.01353	52.3185
2.01275	52.277
2.01196	52.1843
2.01118	52.0379
2.0104	51.8511
2.00963	51.6314
2.00885	51.6252
2.00807	51.6899
2.00729	51.7059
2.00651	51.5054
2.00574	51.446
2.00496	51.5531
2.00419	51.3167
2.00341	51.0978
2.00264	50.9594
2.00187	50.9473
2.00109	51.0629
2.00032	51.0137
