Name: Alkali Basalt
Type: Rock
Class: Igneous
Subclass: Mafic
Particle Size: Whole rock chips
Sample No.: Mewy366
Owner: Lawrence Rowan, USGS Reston
Wavelength range: 0.40 - 14.05 um
Origin: Tiberias, Middle East

Description: Alkali basalt, fresh surface, early Pliocene





Measurement: Directional Hemispherical Reflectance
First Column: X
Second Column: Y
X Units: Wavelength (micrometers)
Y Units: Reflectance (percent)
First X Value: 14.05105
Last X Value: 0.40000
Number of X Values: 2231
Additional Information: mewy366a.txt

 14.051   2.7295
 14.013   2.7707
 13.975   2.9458
 13.938   2.7604
 13.900   2.8325
 13.863   2.8428
 13.826   3.0488
 13.790   3.0694
 13.753   2.9767
 13.717   2.8943
 13.680   3.0076
 13.644   2.8943
 13.609   2.9458
 13.573   2.9561
 13.538   3.0179
 13.502   2.9767
 13.467   3.0179
 13.432   3.0179
 13.398   3.1621
 13.363   2.9767
 13.329   2.9870
 13.295   3.0694
 13.261   3.1106
 13.227   2.9664
 13.193   2.9355
 13.160   2.9252
 13.126   2.9149
 13.093   2.9252
 13.060   3.0076
 13.027   3.0282
 12.995   3.0900
 12.962   2.9870
 12.930   2.9561
 12.898   2.9458
 12.866   3.1209
 12.834   3.1106
 12.802   3.1621
 12.771   3.1621
 12.739   3.1518
 12.708   3.0694
 12.677   3.1518
 12.646   3.1518
 12.616   3.1930
 12.585   3.1724
 12.554   3.1518
 12.524   3.1518
 12.494   3.3475
 12.464   3.4402
 12.434   3.4917
 12.404   3.4917
 12.375   3.4608
 12.345   3.4505
 12.316   3.7080
 12.287   3.7801
 12.258   3.8625
 12.229   3.9861
 12.200   4.1509
 12.171   4.1921
 12.143   4.2951
 12.115   4.2848
 12.086   4.3775
 12.058   4.4496
 12.030   4.5732
 12.002   4.5835
 11.975   4.6144
 11.947   4.5629
 11.920   4.6144
 11.892   4.6144
 11.865   4.7792
 11.838   4.9028
 11.811   5.0161
 11.784   4.9955
 11.757   5.0367
 11.731   5.0882
 11.704   5.2427
 11.678   5.3457
 11.652   5.5414
 11.626   5.5620
 11.600   5.7577
 11.574   5.9225
 11.548   6.1285
 11.522   6.1079
 11.497   6.1800
 11.471   6.2830
 11.446   6.4169
 11.421   6.4787
 11.396   6.7568
 11.371   6.7980
 11.346   6.7877
 11.321   6.8598
 11.297   7.1173
 11.272   7.2203
 11.248   7.3130
 11.223   7.2615
 11.199   7.2615
 11.175   7.3233
 11.151   7.4881
 11.127   7.5808
 11.103   7.7353
 11.079   7.7559
 11.056   7.8280
 11.032   7.8280
 11.009   7.8589
 10.985   7.9207
 10.962   8.1164
 10.939   8.1679
 10.916   8.2709
 10.893   8.3327
 10.870   8.4563
 10.848   8.4460
 10.825   8.4872
 10.802   8.4254
 10.780   8.4254
 10.758   8.4048
 10.735   8.4357
 10.713   8.3842
 10.691   8.4151
 10.669   8.4048
 10.647   8.3533
 10.625   8.2297
 10.604   8.1370
 10.582   8.0855
 10.560   8.1473
 10.539   8.1473
 10.518   8.1576
 10.496   8.0443
 10.475   8.0546
 10.454   8.1782
 10.433   8.2503
 10.412   8.2812
 10.391   8.3224
 10.370   8.2812
 10.350   8.4048
 10.329   8.4048
 10.309   8.3533
 10.288   8.2709
 10.268   8.3121
 10.247   8.2297
 10.227   8.1988
 10.207   8.1988
 10.187   8.2503
 10.167   8.1885
 10.147   8.2297
 10.127   8.3018
 10.108   8.4563
 10.088   8.4872
 10.068   8.6108
 10.049   8.5490
 10.029   8.4975
 10.010   8.5799
  9.991   8.8065
  9.972   8.8992
  9.952   8.9610
  9.933   8.8889
  9.914   8.8374
  9.895   8.7962
  9.877   8.8786
  9.858   8.9198
  9.839   9.0125
  9.821   8.9404
  9.802   8.9404
  9.783   8.9919
  9.765   8.9919
  9.747   8.8477
  9.728   8.7550
  9.710   8.6417
  9.692   8.6726
  9.674   8.5799
  9.656   8.5593
  9.638   8.5490
  9.620   8.5284
  9.602   8.4357
  9.585   8.4048
  9.567   8.2194
  9.549   8.0649
  9.532   7.9310
  9.514   7.8795
  9.497   7.8280
  9.479   7.8486
  9.462   7.7250
  9.445   7.6117
  9.428   7.4675
  9.411   7.4572
  9.394   7.4160
  9.377   7.3748
  9.360   7.2100
  9.343   7.1482
  9.326   7.0967
  9.309   7.0555
  9.293   6.9731
  9.276   6.9422
  9.259   6.9113
  9.243   6.9628
  9.226   6.9731
  9.210   6.9319
  9.194   6.7774
  9.178   6.9319
  9.161   7.0452
  9.145   7.0658
  9.129   7.0658
  9.113   7.1276
  9.097   7.1379
  9.081   7.1997
  9.065   7.2203
  9.049   7.2512
  9.034   7.2100
  9.018   7.2821
  9.002   7.4263
  8.987   7.5190
  8.971   7.3748
  8.956   7.3130
  8.940   7.3027
  8.925   7.3336
  8.909   7.2203
  8.894   7.1482
  8.879   7.1482
  8.864   7.1379
  8.849   6.9628
  8.834   6.7877
  8.819   6.6950
  8.804   6.7053
  8.789   6.5302
  8.774   6.4581
  8.759   6.3860
  8.744   6.3448
  8.730   6.2933
  8.715   6.3345
  8.700   6.2727
  8.686   6.2315
  8.671   6.1491
  8.657   6.1388
  8.642   6.0564
  8.628   6.0564
  8.614   6.1079
  8.599   6.1697
  8.585   6.1388
  8.571   6.0976
  8.557   5.9946
  8.543   5.9637
  8.529   5.9431
  8.515   5.9534
  8.501   5.8813
  8.487   5.8916
  8.473   5.7989
  8.459   5.7783
  8.445   5.7474
  8.431   5.6650
  8.418   5.6135
  8.404   5.6856
  8.391   5.6547
  8.377   5.5929
  8.363   5.4693
  8.350   5.3766
  8.337   5.2530
  8.323   5.0985
  8.310   4.9028
  8.297   4.8101
  8.283   4.5526
  8.270   4.2848
  8.257   4.0273
  8.244   3.8522
  8.231   3.5741
  8.218   3.3887
  8.205   3.1312
  8.192   2.8634
  8.179   2.6574
  8.166   2.5235
  8.153   2.2763
  8.140   2.1527
  8.128   2.0703
  8.115   1.9570
  8.102   1.9055
  8.090   1.8849
  8.077   1.7613
  8.064   1.6686
  8.052   1.5450
  8.039   1.5347
  8.027   1.5553
  8.015   1.5656
  8.002   1.4523
  7.990   1.4523
  7.978   1.4420
  7.965   1.4626
  7.953   1.4214
  7.941   1.4420
  7.929   1.4523
  7.917   1.4214
  7.905   1.3699
  7.893   1.4214
  7.881   1.3802
  7.869   1.4523
  7.857   1.4935
  7.845   1.4832
  7.833   1.4626
  7.821   1.4832
  7.809   1.4935
  7.798   1.4832
  7.786   1.3905
  7.774   1.3905
  7.763   1.4214
  7.751   1.5450
  7.739   1.5553
  7.728   1.5141
  7.716   1.4935
  7.705   1.5450
  7.694   1.5450
  7.682   1.5759
  7.671   1.5244
  7.659   1.5244
  7.648   1.5656
  7.637   1.6480
  7.626   1.6274
  7.614   1.6274
  7.603   1.5862
  7.592   1.5965
  7.581   1.6480
  7.570   1.7098
  7.559   1.7098
  7.548   1.8025
  7.537   1.7819
  7.526   1.7304
  7.515   1.6892
  7.504   1.7510
  7.493   1.8128
  7.483   1.8849
  7.472   1.8849
  7.461   1.9158
  7.450   1.9158
  7.440   1.8849
  7.429   1.8437
  7.418   1.9055
  7.408   1.9467
  7.397   1.9673
  7.387   1.9570
  7.376   1.9776
  7.366   1.9570
  7.355   1.9467
  7.345   1.9158
  7.334   1.9673
  7.324   1.9776
  7.314   1.9982
  7.303   1.9673
  7.293   2.0291
  7.283   2.0909
  7.273   2.1424
  7.263   2.1115
  7.252   2.1321
  7.242   2.1012
  7.232   2.1321
  7.222   2.1836
  7.212   2.1733
  7.202   2.1630
  7.192   2.2454
  7.182   2.2454
  7.172   2.2248
  7.162   2.2248
  7.152   2.2866
  7.143   2.3175
  7.133   2.3175
  7.123   2.2969
  7.113   2.3484
  7.103   2.3072
  7.094   2.3278
  7.084   2.4411
  7.074   2.5441
  7.065   2.4617
  7.055   2.4411
  7.046   2.4411
  7.036   2.4514
  7.026   2.4617
  7.017   2.4823
  7.007   2.5029
  6.998   2.5441
  6.989   2.5441
  6.979   2.5853
  6.970   2.5956
  6.960   2.5750
  6.951   2.5544
  6.942   2.6162
  6.932   2.6265
  6.923   2.6574
  6.914   2.6883
  6.905   2.7089
  6.896   2.6471
  6.886   2.6059
  6.877   2.6265
  6.868   2.6986
  6.859   2.6883
  6.850   2.6677
  6.841   2.6162
  6.832   2.6677
  6.823   2.7192
  6.814   2.7707
  6.805   2.7810
  6.796   2.8325
  6.787   2.7501
  6.778   2.7913
  6.770   2.8531
  6.761   2.8634
  6.752   2.8428
  6.743   2.8840
  6.734   2.8634
  6.726   2.8325
  6.717   2.8119
  6.708   2.8840
  6.700   2.8737
  6.691   2.8840
  6.682   2.8943
  6.674   2.8943
  6.665   2.8737
  6.657   2.8737
  6.648   2.8634
  6.640   2.8222
  6.631   2.7913
  6.623   2.8737
  6.614   2.9355
  6.606   2.9458
  6.597   2.9664
  6.589   2.9561
  6.581   2.9252
  6.572   2.9252
  6.564   2.9355
  6.556   2.9252
  6.547   2.9252
  6.539   3.0076
  6.531   3.0179
  6.523   2.9458
  6.514   2.8943
  6.506   2.9149
  6.498   2.9046
  6.490   2.9458
  6.482   2.9870
  6.474   3.0179
  6.466   3.0385
  6.458   3.0385
  6.450   2.9767
  6.442   2.9767
  6.434   2.9767
  6.426   3.0076
  6.418   2.9973
  6.410   2.9355
  6.402   2.9355
  6.394   3.0385
  6.386   3.0179
  6.378   3.0282
  6.370   3.0591
  6.363   3.0900
  6.355   3.1106
  6.347   3.0797
  6.339   2.9973
  6.332   3.0385
  6.324   3.0488
  6.316   3.0488
  6.308   3.1003
  6.301   3.1415
  6.293   3.1518
  6.286   3.1106
  6.278   3.0694
  6.270   3.1003
  6.263   3.1209
  6.255   3.1621
  6.248   3.1209
  6.240   3.1209
  6.233   3.0797
  6.225   3.1106
  6.218   3.0900
  6.210   3.0385
  6.203   3.0179
  6.195   3.0385
  6.188   3.0179
  6.181   2.9973
  6.173   3.0179
  6.166   2.9767
  6.159   2.9458
  6.151   2.9870
  6.144   2.9664
  6.137   2.9664
  6.130   2.9664
  6.122   2.9664
  6.115   2.9664
  6.108   2.9046
  6.101   2.8840
  6.094   2.9355
  6.086   2.9870
  6.079   2.9973
  6.072   2.9355
  6.065   2.9355
  6.058   2.9664
  6.051   2.9664
  6.044   2.8943
  6.037   2.9561
  6.030   3.0385
  6.023   3.0797
  6.016   3.1003
  6.009   3.1621
  6.002   3.1827
  5.995   3.1621
  5.988   3.1209
  5.981   3.2342
  5.974   3.2960
  5.967   3.2651
  5.960   3.2136
  5.954   3.2651
  5.947   3.3269
  5.940   3.3372
  5.933   3.2548
  5.926   3.3269
  5.920   3.4093
  5.913   3.4711
  5.906   3.5638
  5.899   3.5638
  5.893   3.5020
  5.886   3.5432
  5.879   3.5741
  5.873   3.5741
  5.866   3.6256
  5.859   3.6668
  5.853   3.7286
  5.846   3.7492
  5.840   3.7492
  5.833   3.7698
  5.827   3.7904
  5.820   3.7801
  5.813   3.8213
  5.807   3.8934
  5.800   3.8934
  5.794   3.9037
  5.788   3.9243
  5.781   3.9964
  5.775   4.0170
  5.768   3.9037
  5.762   3.8419
  5.755   3.9655
  5.749   4.0479
  5.743   4.0479
  5.736   3.9861
  5.730   3.9964
  5.724   4.0685
  5.717   4.0788
  5.711   4.0376
  5.705   4.0273
  5.698   4.0788
  5.692   4.1406
  5.686   4.1406
  5.680   4.1303
  5.674   4.1303
  5.667   4.1921
  5.661   4.2230
  5.655   4.1921
  5.649   4.2024
  5.643   4.2230
  5.637   4.2333
  5.630   4.2539
  5.624   4.2333
  5.618   4.2230
  5.612   4.2539
  5.606   4.3054
  5.600   4.3466
  5.594   4.3260
  5.588   4.3363
  5.582   4.3878
  5.576   4.3672
  5.570   4.3775
  5.564   4.3981
  5.558   4.3981
  5.552   4.4290
  5.546   4.4496
  5.540   4.4805
  5.534   4.4599
  5.528   4.4805
  5.523   4.5114
  5.517   4.5526
  5.511   4.6041
  5.505   4.6144
  5.499   4.6144
  5.493   4.5938
  5.487   4.6350
  5.482   4.6659
  5.476   4.7174
  5.470   4.7071
  5.464   4.6556
  5.459   4.6762
  5.453   4.7895
  5.447   4.8204
  5.441   4.7792
  5.436   4.7689
  5.430   4.8410
  5.424   4.8719
  5.419   4.7689
  5.413   4.7586
  5.407   4.8513
  5.402   4.8822
  5.396   4.8925
  5.390   4.9131
  5.385   4.9028
  5.379   4.9131
  5.374   4.9543
  5.368   4.9852
  5.363   5.0367
  5.357   4.9852
  5.352   4.9749
  5.346   5.0161
  5.341   5.0264
  5.335   5.0676
  5.330   5.1191
  5.324   5.0779
  5.319   5.0779
  5.313   5.1191
  5.308   5.2015
  5.302   5.2427
  5.297   5.2118
  5.291   5.1912
  5.286   5.2015
  5.281   5.2633
  5.275   5.3045
  5.270   5.2839
  5.265   5.3251
  5.259   5.3457
  5.254   5.3663
  5.249   5.3869
  5.243   5.3869
  5.238   5.3663
  5.233   5.3560
  5.227   5.4178
  5.222   5.4487
  5.217   5.4796
  5.212   5.5620
  5.206   5.5826
  5.201   5.6032
  5.196   5.6341
  5.191   5.6856
  5.186   5.7165
  5.180   5.6856
  5.175   5.6650
  5.170   5.7062
  5.165   5.7577
  5.160   5.7989
  5.155   5.7886
  5.150   5.7680
  5.145   5.7886
  5.139   5.8298
  5.134   5.8401
  5.129   5.8916
  5.124   5.9019
  5.119   5.9328
  5.114   5.9431
  5.109   6.0049
  5.104   6.0358
  5.099   6.0358
  5.094   6.0667
  5.089   6.0873
  5.084   6.1388
  5.079   6.2315
  5.074   6.2109
  5.069   6.2315
  5.064   6.2315
  5.059   6.2109
  5.054   6.2521
  5.049   6.2727
  5.044   6.3036
  5.040   6.3963
  5.035   6.4581
  5.030   6.4478
  5.025   6.4375
  5.020   6.4890
  5.015   6.4478
  5.010   6.4684
  5.005   6.5920
  5.001   6.6023
  4.996   6.6332
  4.991   6.7053
  4.986   6.7259
  4.981   6.6744
  4.977   6.6538
  4.972   6.7465
  4.967   6.7877
  4.962   6.7362
  4.958   6.7465
  4.953   6.8907
  4.948   6.9628
  4.943   6.9113
  4.939   6.8907
  4.934   6.9319
  4.929   7.0040
  4.925   7.0452
  4.920   7.0452
  4.915   7.0349
  4.911   7.0761
  4.906   7.1173
  4.901   7.1482
  4.897   7.1894
  4.892   7.2306
  4.888   7.1894
  4.883   7.2203
  4.878   7.2821
  4.874   7.2718
  4.869   7.2821
  4.865   7.2821
  4.860   7.3233
  4.856   7.4057
  4.851   7.4263
  4.846   7.4160
  4.842   7.4160
  4.837   7.4675
  4.833   7.4881
  4.828   7.4675
  4.824   7.5293
  4.819   7.5602
  4.815   7.5808
  4.810   7.5705
  4.806   7.5602
  4.802   7.5705
  4.797   7.6117
  4.793   7.6426
  4.788   7.6838
  4.784   7.7353
  4.779   7.7353
  4.775   7.7147
  4.771   7.6941
  4.766   7.7868
  4.762   7.8383
  4.758   7.8795
  4.753   7.9207
  4.749   7.9310
  4.744   7.9001
  4.740   7.8898
  4.736   7.9928
  4.731   8.0546
  4.727   8.0752
  4.723   8.1267
  4.719   8.1370
  4.714   8.1885
  4.710   8.1782
  4.706   8.1885
  4.701   8.2606
  4.697   8.3224
  4.693   8.3533
  4.689   8.3636
  4.684   8.4048
  4.680   8.4769
  4.676   8.4769
  4.672   8.5078
  4.668   8.5490
  4.663   8.5799
  4.659   8.6520
  4.655   8.6829
  4.651   8.7138
  4.647   8.7344
  4.643   8.7447
  4.638   8.7756
  4.634   8.8168
  4.630   8.8992
  4.626   8.9507
  4.622   8.8889
  4.618   8.8992
  4.614   8.9507
  4.610   9.0640
  4.605   9.0949
  4.601   9.0949
  4.597   9.1464
  4.593   9.1773
  4.589   9.1773
  4.585   9.2082
  4.581   9.2803
  4.577   9.3318
  4.573   9.4142
  4.569   9.4760
  4.565   9.4657
  4.561   9.5069
  4.557   9.5584
  4.553   9.5996
  4.549   9.6717
  4.545   9.6614
  4.541   9.6614
  4.537   9.7129
  4.533   9.7747
  4.529   9.7953
  4.525   9.7644
  4.521   9.8056
  4.517   9.9395
  4.513   9.9807
  4.509   9.9807
  4.505  10.0116
  4.502  10.0425
  4.498  10.1558
  4.494  10.2073
  4.490  10.1867
  4.486  10.1764
  4.482  10.1764
  4.478  10.2073
  4.474  10.3103
  4.470  10.3721
  4.467  10.3412
  4.463  10.3824
  4.459  10.4751
  4.455  10.5884
  4.451  10.5987
  4.447  10.5369
  4.444  10.5472
  4.440  10.6296
  4.436  10.6605
  4.432  10.6914
  4.428  10.7223
  4.425  10.7429
  4.421  10.7841
  4.417  10.8150
  4.413  10.8459
  4.410  10.8974
  4.406  10.9283
  4.402  10.9592
  4.398  10.9592
  4.395  10.9901
  4.391  11.0107
  4.387  11.0210
  4.384  11.0210
  4.380  11.0519
  4.376  11.0725
  4.372  11.0931
  4.369  11.0931
  4.365  11.2064
  4.361  11.2991
  4.358  11.3197
  4.354  11.2991
  4.350  11.3094
  4.347  11.3403
  4.343  11.3609
  4.340  11.3918
  4.336  11.3918
  4.332  11.4021
  4.329  11.4536
  4.325  11.5566
  4.321  11.5463
  4.318  11.5257
  4.314  11.5978
  4.311  11.6081
  4.307  11.5875
  4.304  11.5360
  4.300  11.5051
  4.296  11.5875
  4.293  11.6390
  4.289  11.5875
  4.286  11.6081
  4.282  11.5875
  4.279  11.5463
  4.275  11.5772
  4.272  11.6699
  4.268  11.7317
  4.265  11.7832
  4.261  11.8759
  4.258  11.9583
  4.254  11.9995
  4.251  11.9995
  4.247  11.9583
  4.244  11.8965
  4.240  11.8450
  4.237  11.8347
  4.233  11.8553
  4.230  11.9274
  4.226  11.9377
  4.223  12.0098
  4.219  12.1334
  4.216  12.1849
  4.213  12.3085
  4.209  12.4527
  4.206  12.5454
  4.202  12.5969
  4.199  12.5763
  4.196  12.5454
  4.192  12.5763
  4.189  12.6793
  4.185  12.6587
  4.182  12.6793
  4.179  12.7617
  4.175  12.7514
  4.172  12.7617
  4.169  12.7926
  4.165  12.7205
  4.162  12.7720
  4.159  12.9162
  4.155  13.0192
  4.152  12.9368
  4.149  12.9265
  4.145  12.9986
  4.142  12.9883
  4.139  12.9368
  4.135  12.8544
  4.132  12.9059
  4.129  13.0192
  4.126  13.1222
  4.122  13.2458
  4.119  13.2355
  4.116  13.1943
  4.112  13.1943
  4.109  13.1634
  4.106  13.1222
  4.103  13.1840
  4.099  13.2561
  4.096  13.3282
  4.093  13.3282
  4.090  13.2561
  4.086  13.2664
  4.083  13.2458
  4.080  13.2561
  4.077  13.3900
  4.074  13.3797
  4.070  13.3282
  4.067  13.3076
  4.064  13.3591
  4.061  13.3900
  4.058  13.3900
  4.055  13.3694
  4.051  13.4003
  4.048  13.4930
  4.045  13.5342
  4.042  13.5445
  4.039  13.6166
  4.036  13.5857
  4.032  13.5342
  4.029  13.5857
  4.026  13.5754
  4.023  13.5136
  4.020  13.5754
  4.017  13.5548
  4.014  13.5342
  4.011  13.5445
  4.008  13.6887
  4.004  13.6887
  4.001  13.7608
  3.998  13.8226
  3.995  13.8020
  3.992  13.7505
  3.989  13.7711
  3.986  13.7093
  3.983  13.7093
  3.980  13.7505
  3.977  13.8329
  3.974  13.8432
  3.971  13.8226
  3.968  13.8226
  3.965  13.8123
  3.962  13.8226
  3.959  13.8844
  3.956  13.8844
  3.953  14.0080
  3.950  14.0698
  3.947  13.9462
  3.944  13.8741
  3.941  13.8844
  3.938  13.9462
  3.935  13.9874
  3.932  13.9874
  3.929  14.0286
  3.926  14.0389
  3.923  13.9771
  3.920  14.0183
  3.917  14.0595
  3.914  14.0595
  3.911  14.1007
  3.908  14.1110
  3.905  13.9771
  3.902  13.8741
  3.899  13.9359
  3.896  13.9153
  3.893  13.9668
  3.890  14.0080
  3.887  14.0389
  3.884  14.0595
  3.882  14.1316
  3.879  14.0904
  3.876  14.0389
  3.873  14.0492
  3.870  14.1110
  3.867  14.0698
  3.864  13.9359
  3.861  13.9565
  3.858  14.0904
  3.856  14.1831
  3.853  14.1522
  3.850  14.1625
  3.847  14.2140
  3.844  14.2346
  3.841  14.2346
  3.838  14.1316
  3.836  14.1625
  3.833  14.2346
  3.830  14.2243
  3.827  14.2140
  3.824  14.1831
  3.822  14.1316
  3.819  14.1728
  3.816  14.1110
  3.813  14.1213
  3.810  14.1316
  3.807  14.1213
  3.805  14.1007
  3.802  14.1316
  3.799  14.1625
  3.796  14.1110
  3.794  14.0801
  3.791  14.2346
  3.788  14.2655
  3.785  14.1728
  3.782  14.2243
  3.780  14.2449
  3.777  14.1007
  3.774  14.1110
  3.771  14.1522
  3.769  14.1831
  3.766  14.1522
  3.763  14.1522
  3.761  14.1934
  3.758  14.2449
  3.755  14.2449
  3.752  14.1934
  3.750  14.2037
  3.747  14.2655
  3.744  14.1934
  3.742  14.1522
  3.739  14.1831
  3.736  14.1728
  3.733  14.1419
  3.731  14.1934
  3.728  14.1213
  3.725  14.1110
  3.723  14.1007
  3.720  14.0389
  3.717  14.0080
  3.715  14.0698
  3.712  14.1213
  3.709  14.2037
  3.707  14.2140
  3.704  14.2140
  3.702  14.1934
  3.699  14.2243
  3.696  14.1419
  3.694  14.1110
  3.691  14.0698
  3.688  14.0595
  3.686  14.1110
  3.683  14.1110
  3.680  14.0492
  3.678  14.0595
  3.675  14.0183
  3.673  14.0080
  3.670  13.9771
  3.667  14.0595
  3.665  14.0801
  3.662  14.0080
  3.660  13.9977
  3.657  14.1007
  3.655  14.0801
  3.652  14.1007
  3.649  14.1522
  3.647  14.0286
  3.644  13.8947
  3.642  13.9256
  3.639  13.9050
  3.637  13.9050
  3.634  13.9565
  3.632  13.9977
  3.629  13.9359
  3.626  13.9256
  3.624  13.8432
  3.621  13.8844
  3.619  13.9771
  3.616  14.0389
  3.614  13.9256
  3.611  13.8638
  3.609  13.8535
  3.606  13.8226
  3.604  13.7505
  3.601  13.8226
  3.599  13.8741
  3.596  13.8123
  3.594  13.8329
  3.591  13.8638
  3.589  13.8329
  3.586  13.7814
  3.584  13.7608
  3.581  13.7917
  3.579  13.7608
  3.576  13.8020
  3.574  13.8329
  3.571  13.7608
  3.569  13.6372
  3.567  13.6372
  3.564  13.6166
  3.562  13.6475
  3.559  13.6475
  3.557  13.6578
  3.554  13.6063
  3.552  13.5136
  3.549  13.4930
  3.547  13.4621
  3.545  13.4209
  3.542  13.4518
  3.540  13.4930
  3.537  13.4415
  3.535  13.4415
  3.533  13.4415
  3.530  13.4106
  3.528  13.4621
  3.525  13.3076
  3.523  13.2046
  3.521  13.2664
  3.518  13.2458
  3.516  13.1222
  3.513  13.1222
  3.511  13.1016
  3.509  13.0501
  3.506  12.9780
  3.504  13.0707
  3.502  13.0913
  3.499  13.0192
  3.497  12.9471
  3.494  12.9368
  3.492  13.0192
  3.490  13.1531
  3.487  13.1325
  3.485  13.0398
  3.483  12.9471
  3.480  12.9265
  3.478  12.8544
  3.476  12.8647
  3.473  12.9162
  3.471  12.9883
  3.469  12.9162
  3.466  12.7720
  3.464  12.7720
  3.462  12.8544
  3.460  12.7514
  3.457  12.6484
  3.455  12.6690
  3.453  12.7617
  3.450  12.7205
  3.448  12.6278
  3.446  12.6793
  3.443  12.6896
  3.441  12.5866
  3.439  12.5351
  3.437  12.5557
  3.434  12.6278
  3.432  12.5557
  3.430  12.3909
  3.428  12.2982
  3.425  12.2982
  3.423  12.2570
  3.421  12.2776
  3.418  12.2570
  3.416  12.2158
  3.414  12.1540
  3.412  12.2673
  3.409  12.2158
  3.407  12.1746
  3.405  12.2261
  3.403  12.2467
  3.401  12.1952
  3.398  12.2467
  3.396  12.2982
  3.394  12.1334
  3.392  12.0407
  3.389  12.1952
  3.387  12.1231
  3.385  12.0201
  3.383  12.0098
  3.381  11.9892
  3.378  11.9171
  3.376  11.9583
  3.374  12.0407
  3.372  12.0922
  3.370  12.0304
  3.367  11.9789
  3.365  12.0304
  3.363  11.9068
  3.361  11.8141
  3.359  11.8347
  3.357  11.7935
  3.354  11.8862
  3.352  12.0201
  3.350  12.1334
  3.348  11.9583
  3.346  11.8347
  3.344  11.7832
  3.341  11.7935
  3.339  11.7832
  3.337  11.7935
  3.335  11.8038
  3.333  11.7935
  3.331  11.8347
  3.329  11.8038
  3.326  11.6802
  3.324  11.7317
  3.322  11.7008
  3.320  11.6184
  3.318  11.6081
  3.316  11.6081
  3.314  11.4536
  3.312  11.5051
  3.309  11.5360
  3.307  11.5669
  3.305  11.5360
  3.303  11.5463
  3.301  11.4536
  3.299  11.3609
  3.297  11.3197
  3.295  11.4227
  3.293  11.3609
  3.291  11.3506
  3.288  11.3815
  3.286  11.4536
  3.284  11.3609
  3.282  11.2785
  3.280  11.1961
  3.278  11.1549
  3.276  11.0622
  3.274  11.0107
  3.272  10.9489
  3.270  10.9695
  3.268  11.0416
  3.266  11.0828
  3.264  11.0210
  3.262  11.0416
  3.259  11.0931
  3.257  10.9798
  3.255  10.7944
  3.253  10.8562
  3.251  10.9077
  3.249  10.8562
  3.247  10.7429
  3.245  10.7120
  3.243  10.7532
  3.241  10.8459
  3.239  10.7944
  3.237  10.6708
  3.235  10.5987
  3.233  10.7017
  3.231  10.5678
  3.229  10.4957
  3.227  10.6090
  3.225  10.6708
  3.223  10.5575
  3.221  10.4442
  3.219  10.3721
  3.217  10.3721
  3.215  10.2897
  3.213  10.2897
  3.211  10.3309
  3.209  10.3927
  3.207  10.2073
  3.205  10.2176
  3.203  10.3206
  3.201  10.3000
  3.199  10.3206
  3.197  10.2279
  3.195  10.0528
  3.193  10.0013
  3.191  10.0631
  3.189  10.1352
  3.187  10.0219
  3.185   9.9292
  3.183   9.9086
  3.182   9.9601
  3.180   9.9498
  3.178   9.9704
  3.176   9.8571
  3.174   9.7953
  3.172   9.7335
  3.170   9.6923
  3.168   9.7644
  3.166   9.7747
  3.164   9.7438
  3.162   9.6099
  3.160   9.5790
  3.158   9.6717
  3.156   9.5481
  3.154   9.5275
  3.152   9.6923
  3.151   9.6717
  3.149   9.4863
  3.147   9.4863
  3.145   9.5275
  3.143   9.5275
  3.141   9.3318
  3.139   9.4348
  3.137   9.4760
  3.135   9.4348
  3.133   9.2906
  3.132   9.2494
  3.130   9.2597
  3.128   9.2700
  3.126   9.1876
  3.124   9.2391
  3.122   9.1979
  3.120   9.1876
  3.118   9.1773
  3.117   9.1670
  3.115   9.1773
  3.113   9.2288
  3.111   9.1670
  3.109   9.1361
  3.107   9.1773
  3.105   9.2906
  3.103   9.2391
  3.102   9.1155
  3.100   8.9713
  3.098   9.0331
  3.096   9.0434
  3.094   9.0331
  3.092   8.9610
  3.091   8.7962
  3.089   8.6932
  3.087   8.8786
  3.085   9.0125
  3.083   9.0640
  3.081   9.0743
  3.079   9.0434
  3.078   8.9816
  3.076   8.9404
  3.074   8.8580
  3.072   8.9301
  3.070   8.9301
  3.069   8.9610
  3.067   8.8683
  3.065   8.7859
  3.063   8.7859
  3.061   8.8477
  3.060   8.8580
  3.058   8.8683
  3.056   8.8992
  3.054   8.9507
  3.052   8.8477
  3.051   8.8786
  3.049   8.8374
  3.047   8.7962
  3.045   8.8683
  3.043   8.9816
  3.042   8.7653
  3.040   8.7138
  3.038   8.8168
  3.036   8.8374
  3.034   8.7344
  3.033   8.8065
  3.031   8.8992
  3.029   8.8374
  3.027   8.8065
  3.026   8.9816
  3.024   8.8786
  3.022   8.8168
  3.020   8.8477
  3.019   8.9610
  3.017   8.9095
  3.015   8.7859
  3.013   8.7035
  3.012   8.8477
  3.010   8.7756
  3.008   8.7035
  3.006   8.5902
  3.005   8.8580
  3.003   9.0228
  3.001   9.0331
  2.999   8.8374
  2.998   8.7653
  2.996   8.6520
  2.994   8.6623
  2.992   8.5593
  2.991   8.4254
  2.989   8.5181
  2.987   8.6520
  2.986   8.6829
  2.984   8.7859
  2.982   8.7653
  2.980   8.7756
  2.979   8.7550
  2.977   8.7035
  2.975   8.6314
  2.974   8.6211
  2.972   8.4460
  2.970   8.3430
  2.968   8.4460
  2.967   8.4872
  2.965   8.3533
  2.963   8.3945
  2.962   8.6829
  2.960   8.7550
  2.958   8.5799
  2.957   8.4151
  2.955   8.4563
  2.953   8.7550
  2.952   8.7241
  2.950   8.5078
  2.948   8.4460
  2.947   8.4563
  2.945   8.4048
  2.943   8.4975
  2.942   8.4872
  2.940   8.5387
  2.938   8.4666
  2.937   8.4048
  2.935   8.4975
  2.933   8.7550
  2.932   8.6520
  2.930   8.4357
  2.928   8.3018
  2.927   8.4563
  2.925   8.6726
  2.923   8.6726
  2.922   8.5696
  2.920   8.6726
  2.918   8.7859
  2.917   8.7447
  2.915   8.5284
  2.913   8.5387
  2.912   8.4975
  2.910   8.5284
  2.909   8.5696
  2.907   8.7241
  2.905   8.6520
  2.904   8.5078
  2.902   8.5284
  2.900   8.6932
  2.899   8.5902
  2.897   8.7035
  2.896   8.7653
  2.894   8.8580
  2.892   8.8374
  2.891   8.8580
  2.889   8.8168
  2.887   8.7653
  2.886   8.7344
  2.884   8.7241
  2.883   8.6417
  2.881   8.6211
  2.879   8.4666
  2.878   8.6005
  2.876   8.7035
  2.875   8.7241
  2.873   8.8065
  2.871   8.8168
  2.870   8.8065
  2.868   9.0228
  2.867   9.0640
  2.865   9.0537
  2.864   8.7550
  2.862   8.7138
  2.860   8.9507
  2.859   9.0228
  2.857   9.0022
  2.856   8.8786
  2.854   8.8683
  2.853   9.1155
  2.851   9.2391
  2.849   9.1979
  2.848   8.9713
  2.846   9.1258
  2.845   8.9507
  2.843   8.8889
  2.842   9.0846
  2.840   9.0537
  2.838   8.7241
  2.837   8.7550
  2.835   8.7344
  2.834   8.6417
  2.832   8.5799
  2.831   8.6932
  2.829   8.5799
  2.828   8.5387
  2.826   8.5902
  2.825   8.6623
  2.823   8.5902
  2.821   8.5387
  2.820   8.4769
  2.818   8.3842
  2.817   8.2709
  2.815   8.4254
  2.814   8.6932
  2.812   8.7550
  2.811   8.4975
  2.809   8.3018
  2.808   8.3739
  2.806   8.4666
  2.805   8.4254
  2.803   8.3224
  2.802   8.2606
  2.800   8.2709
  2.799   8.3430
  2.797   8.4048
  2.796   8.3842
  2.794   8.4769
  2.793   8.5387
  2.791   8.6211
  2.790   8.5284
  2.788   8.6005
  2.787   8.6211
  2.785   8.6211
  2.784   8.7550
  2.782   8.7241
  2.781   8.8477
  2.779   9.1258
  2.778   9.1052
  2.776   8.9919
  2.775   9.1155
  2.773   9.2494
  2.772   9.0949
  2.770   9.1258
  2.769   9.1876
  2.767   9.3627
  2.766   9.5687
  2.764   9.3318
  2.763   9.0331
  2.761   9.3318
  2.760   9.5275
  2.758   9.5687
  2.757   9.6717
  2.756   9.7026
  2.754   9.6511
  2.753   9.8468
  2.751  10.0734
  2.750  10.2073
  2.748  10.2279
  2.747  10.3206
  2.745  10.4854
  2.744  10.7738
  2.742  10.6708
  2.741  10.6914
  2.740  10.9489
  2.738  10.9386
  2.737  10.9592
  2.735  11.3094
  2.734  11.6287
  2.732  11.9171
  2.731  12.0716
  2.729  12.1952
  2.728  12.4630
  2.727  12.6793
  2.725  12.7205
  2.724  12.9780
  2.722  13.2149
  2.721  13.1634
  2.719  13.0810
  2.718  13.4209
  2.717  13.6887
  2.715  13.8844
  2.714  14.0389
  2.712  14.3479
  2.711  14.4612
  2.709  14.4509
  2.708  14.5642
  2.707  14.9144
  2.705  15.0380
  2.704  15.3882
  2.702  15.4191
  2.701  15.4088
  2.700  15.6251
  2.698  15.8105
  2.697  15.8208
  2.695  15.9650
  2.694  16.0371
  2.693  16.1607
  2.691  16.3667
  2.690  16.6036
  2.688  16.7684
  2.687  17.0568
  2.686  17.0774
  2.684  17.0671
  2.683  17.1289
  2.681  17.2319
  2.680  17.1392
  2.679  16.8302
  2.677  16.7993
  2.676  17.1186
  2.675  17.4276
  2.673  17.5718
  2.672  17.4997
  2.670  17.3555
  2.669  17.4585
  2.668  17.4997
  2.666  17.3452
  2.665  17.6748
  2.664  17.8705
  2.662  17.9941
  2.661  17.8190
  2.659  17.7057
  2.658  17.8705
  2.657  18.3031
  2.655  18.3443
  2.654  18.1589
  2.653  17.9323
  2.651  18.2001
  2.650  18.3443
  2.649  18.2619
  2.647  18.0559
  2.646  17.9941
  2.645  17.9426
  2.643  18.2413
  2.642  18.1177
  2.640  18.2722
  2.639  18.6430
  2.638  18.5812
  2.636  18.5297
  2.635  18.7769
  2.634  18.6945
  2.632  18.2722
  2.631  17.7366
  2.630  17.9014
  2.628  18.3546
  2.627  18.2104
  2.626  18.0147
  2.624  18.2001
  2.623  18.1692
  2.622  18.4267
  2.620  18.4988
  2.619  18.4782
  2.618  18.1074
  2.617  17.7675
  2.615  17.7984
  2.614  18.3752
  2.613  18.5503
  2.611  18.3546
  2.610  17.9220
  2.609  18.0662
  2.607  18.2619
  2.606  18.0971
  2.605  17.9323
  2.603  18.0868
  2.602  18.1692
  2.601  18.2310
  2.599  18.4267
  2.598  18.6636
  2.597  18.3237
  2.596  17.8602
  2.594  17.6542
  2.593  17.9117
  2.592  18.0456
  2.590  18.2413
  2.589  18.3134
  2.588  18.3855
  2.586  18.2825
  2.585  18.2413
  2.584  18.1589
  2.583  18.1177
  2.581  18.1486
  2.580  18.3237
  2.579  18.1177
  2.577  17.9117
  2.576  18.2516
  2.575  18.3855
  2.574  18.2722
  2.572  18.4988
  2.571  18.6018
  2.570  18.4679
  2.569  18.2619
  2.567  18.4885
  2.566  18.3237
  2.565  18.1692
  2.563  18.0765
  2.562  17.8293
  2.561  17.6851
  2.560  18.1486
  2.558  18.3958
  2.557  18.5709
  2.556  18.4782
  2.555  18.4164
  2.553  18.4061
  2.552  18.3134
  2.551  18.1898
  2.550  18.4679
  2.548  18.4473
  2.547  18.3237
  2.546  18.5709
  2.545  18.4370
  2.543  18.0765
  2.542  18.0559
  2.541  18.0147
  2.540  18.2207
  2.538  18.5091
  2.537  18.5915
  2.536  18.3237
  2.535  18.4576
  2.533  18.5812
  2.532  18.6224
  2.531  18.5606
  2.530  18.7357
  2.528  18.7254
  2.527  18.7048
  2.526  18.6430
  2.525  18.4267
  2.524  18.3031
  2.522  18.5709
  2.521  18.4885
  2.520  18.4061
  2.519  18.6739
  2.517  18.6430
  2.516  18.5297
  2.515  18.6224
  2.514  18.5503
  2.513  18.3855
  2.511  18.3752
  2.510  18.4782
  2.509  18.5194
  2.508  18.6018
  2.506  18.3031
  2.505  18.2928
  2.504  18.3649
  2.503  18.5194
  2.502  18.5400
  2.500  18.6327
  2.496  18.5911
  2.492  18.8501
  2.488  17.9576
  2.484  18.5484
  2.480  18.2242
  2.476  18.8082
  2.472  18.9105
  2.468  18.3468
  2.464  19.5323
  2.460  18.5195
  2.456  18.5602
  2.452  18.2944
  2.448  18.7030
  2.444  18.8737
  2.440  19.1025
  2.436  18.7962
  2.432  18.7295
  2.428  18.4569
  2.424  19.0633
  2.420  18.9487
  2.416  18.8935
  2.412  18.9441
  2.408  18.7908
  2.404  18.4449
  2.400  19.0607
  2.396  19.0927
  2.392  19.1659
  2.388  18.9383
  2.384  18.7037
  2.380  19.1789
  2.376  18.8529
  2.372  19.1221
  2.368  19.0530
  2.364  19.1859
  2.360  19.2829
  2.356  19.2866
  2.352  19.2341
  2.348  19.5019
  2.344  19.5551
  2.340  19.2942
  2.336  19.1750
  2.332  19.3015
  2.328  19.4163
  2.324  19.2308
  2.320  19.1762
  2.316  19.2372
  2.312  19.2712
  2.308  19.3614
  2.304  19.1401
  2.300  19.3396
  2.296  19.4974
  2.292  19.5229
  2.288  19.2658
  2.284  19.3406
  2.280  19.3499
  2.276  19.4763
  2.272  19.5834
  2.268  19.6620
  2.264  19.6043
  2.260  19.4987
  2.256  19.8272
  2.252  19.6930
  2.248  19.7675
  2.244  19.7992
  2.240  19.6122
  2.236  19.8838
  2.232  19.9114
  2.228  20.0157
  2.224  19.9811
  2.220  19.9719
  2.216  20.0322
  2.212  20.0471
  2.208  20.0953
  2.204  20.3168
  2.200  20.3506
  2.196  20.3752
  2.192  20.5263
  2.188  20.4650
  2.184  20.4885
  2.180  20.5008
  2.176  20.5174
  2.172  20.6087
  2.168  20.7554
  2.164  20.8318
  2.160  20.7726
  2.156  20.8119
  2.152  20.8821
  2.148  20.9356
  2.144  20.9966
  2.140  20.9196
  2.136  20.9967
  2.132  21.1147
  2.128  21.0541
  2.124  20.9624
  2.120  20.9273
  2.116  20.9715
  2.112  20.9337
  2.108  20.9974
  2.104  21.0895
  2.100  20.9975
  2.096  20.9761
  2.092  21.1080
  2.088  21.1227
  2.084  21.1125
  2.080  21.1600
  2.076  21.2748
  2.072  21.3152
  2.068  21.3525
  2.064  21.3976
  2.060  21.4248
  2.056  21.4443
  2.052  21.4862
  2.048  21.5431
  2.044  21.6044
  2.040  21.6468
  2.036  21.6567
  2.032  21.6893
  2.028  21.7547
  2.024  21.7564
  2.020  21.7637
  2.016  21.8386
  2.012  21.8490
  2.008  21.8204
  2.004  21.8971
  2.000  21.9619
  1.996  21.9357
  1.992  21.9633
  1.988  22.0126
  1.984  22.0420
  1.980  21.9902
  1.976  21.9917
  1.972  22.0968
  1.968  22.1272
  1.964  22.1361
  1.960  22.1818
  1.956  22.1818
  1.952  22.1968
  1.948  22.2244
  1.944  22.2990
  1.940  22.3247
  1.936  22.0938
  1.932  22.0130
  1.928  22.0872
  1.924  22.0572
  1.920  21.9511
  1.916  21.8835
  1.912  21.8624
  1.908  21.8802
  1.904  21.9677
  1.900  22.0773
  1.896  22.2416
  1.892  22.4322
  1.888  22.5850
  1.884  22.7420
  1.880  22.9541
  1.876  23.1511
  1.872  23.2467
  1.868  23.2293
  1.864  23.2339
  1.860  23.2644
  1.856  23.2899
  1.852  23.4377
  1.848  23.5261
  1.844  23.5052
  1.840  23.5507
  1.836  23.5594
  1.832  23.5020
  1.828  23.4843
  1.824  23.5738
  1.820  23.6203
  1.816  23.6426
  1.812  23.6996
  1.808  23.7005
  1.804  23.7202
  1.800  23.7784
  1.796  23.8289
  1.792  23.8611
  1.788  23.8993
  1.784  23.9804
  1.780  24.0370
  1.776  24.0483
  1.772  24.0659
  1.768  24.0658
  1.764  24.0479
  1.760  24.0540
  1.756  24.0746
  1.752  24.0852
  1.748  24.1252
  1.744  24.1611
  1.740  24.1816
  1.736  24.1941
  1.732  24.2007
  1.728  24.2254
  1.724  24.2558
  1.720  24.2518
  1.716  24.2629
  1.712  24.2671
  1.708  24.2343
  1.704  24.2584
  1.700  24.2850
  1.696  24.3445
  1.692  24.3743
  1.688  24.3739
  1.684  24.3928
  1.680  24.3946
  1.676  24.3462
  1.672  24.3231
  1.668  24.3557
  1.664  24.4475
  1.660  24.3959
  1.656  24.3520
  1.652  24.3278
  1.648  24.3642
  1.644  24.4131
  1.640  24.4413
  1.636  24.4368
  1.632  24.4139
  1.628  24.4352
  1.624  24.4613
  1.620  24.4295
  1.616  24.3912
  1.612  24.4099
  1.608  24.4061
  1.604  24.4320
  1.600  24.4625
  1.596  24.4220
  1.592  24.3895
  1.588  24.3434
  1.584  24.4092
  1.580  24.4315
  1.576  24.3709
  1.572  24.3500
  1.568  24.3542
  1.564  24.3688
  1.560  24.3244
  1.556  24.2664
  1.552  24.3034
  1.548  24.2825
  1.544  24.2818
  1.540  24.2657
  1.536  24.2004
  1.532  24.2414
  1.528  24.1897
  1.524  24.1968
  1.520  24.1744
  1.516  24.0865
  1.512  24.0832
  1.508  24.1175
  1.504  24.0715
  1.500  24.0694
  1.496  24.0213
  1.492  23.9809
  1.488  23.9652
  1.484  24.0060
  1.480  23.9489
  1.476  23.9120
  1.472  23.8566
  1.468  23.8173
  1.464  23.8329
  1.460  23.8403
  1.456  23.7882
  1.452  23.7439
  1.448  23.7593
  1.444  23.6852
  1.440  23.6084
  1.436  23.5877
  1.432  23.6214
  1.428  23.5946
  1.424  23.4824
  1.420  23.4867
  1.416  23.5019
  1.412  23.5392
  1.408  23.4829
  1.404  23.5180
  1.400  23.5282
  1.396  23.5291
  1.392  23.5183
  1.388  23.5334
  1.384  23.5642
  1.380  23.5186
  1.376  23.4026
  1.372  23.4589
  1.368  23.5623
  1.364  23.6063
  1.360  23.5658
  1.356  23.3246
  1.352  23.2755
  1.348  23.3054
  1.344  23.3335
  1.340  23.4448
  1.336  23.4984
  1.332  23.4573
  1.328  23.3486
  1.324  23.2817
  1.320  23.3127
  1.316  23.2833
  1.312  23.2706
  1.308  23.2621
  1.304  23.2493
  1.300  23.2956
  1.296  23.2242
  1.292  23.2978
  1.288  23.2775
  1.284  23.2489
  1.280  23.1960
  1.276  23.1728
  1.272  23.2600
  1.268  23.3065
  1.264  23.2246
  1.260  23.1835
  1.256  23.2079
  1.252  23.2126
  1.248  23.1492
  1.244  23.2374
  1.240  23.1786
  1.236  23.1906
  1.232  23.1497
  1.228  23.2291
  1.224  23.2292
  1.220  23.1141
  1.216  23.1553
  1.212  23.1738
  1.208  23.1359
  1.204  23.1344
  1.200  23.1432
  1.196  23.0998
  1.192  23.0969
  1.188  23.1080
  1.184  23.0405
  1.180  23.0346
  1.176  23.0356
  1.172  23.0123
  1.168  22.9945
  1.164  22.9567
  1.160  22.9505
  1.156  22.9141
  1.152  22.8624
  1.148  22.8389
  1.144  22.8023
  1.140  22.7533
  1.136  22.6315
  1.132  22.5893
  1.128  22.5693
  1.124  22.5011
  1.120  22.4599
  1.116  22.3562
  1.112  22.2956
  1.108  22.2378
  1.104  22.1762
  1.100  22.1093
  1.096  22.1102
  1.092  22.0159
  1.088  21.8998
  1.084  21.8492
  1.080  21.8467
  1.076  21.8626
  1.072  21.7732
  1.068  21.6488
  1.064  21.6789
  1.060  21.6340
  1.056  21.6549
  1.052  21.7037
  1.048  21.6746
  1.044  21.5958
  1.040  21.5853
  1.036  21.6558
  1.032  21.6812
  1.028  21.7128
  1.024  21.7656
  1.020  21.7627
  1.016  21.8101
  1.012  21.8435
  1.008  21.9023
  1.004  21.9502
  1.000  22.0109
  0.996  22.0778
  0.992  22.1283
  0.988  22.1785
  0.984  22.2616
  0.980  22.3652
  0.976  22.4268
  0.972  22.5667
  0.968  22.6653
  0.964  22.7907
  0.960  22.8665
  0.956  22.9885
  0.952  23.1159
  0.948  23.2048
  0.944  23.3188
  0.940  23.4344
  0.936  23.5513
  0.932  23.6822
  0.928  23.8643
  0.924  24.0793
  0.920  24.3069
  0.916  24.4942
  0.912  24.5783
  0.908  24.6773
  0.904  24.8606
  0.900  24.9692
  0.896  25.0879
  0.892  25.1365
  0.888  25.2616
  0.884  25.3316
  0.880  25.3052
  0.876  25.3992
  0.872  25.5638
  0.868  25.6215
  0.864  25.7510
  0.860  25.8352
  0.856  26.0671
  0.852  26.3391
  0.848  26.2776
  0.844  26.3712
  0.840  26.4706
  0.836  26.3845
  0.832  26.4559
  0.828  26.5671
  0.824  26.6245
  0.820  26.6388
  0.816  26.5767
  0.812  26.6244
  0.808  26.6416
  0.804  26.6638
  0.800  26.6738
  0.796  26.7033
  0.792  26.6928
  0.788  26.7653
  0.784  26.7846
  0.780  26.8241
  0.776  26.8955
  0.772  26.8669
  0.768  26.8336
  0.764  26.9205
  0.760  26.9529
  0.756  26.9450
  0.752  26.9906
  0.748  26.9816
  0.744  27.0117
  0.740  27.0378
  0.736  27.0528
  0.732  27.0352
  0.728  27.0346
  0.724  27.0561
  0.720  27.0614
  0.716  27.0592
  0.712  27.0536
  0.708  27.0768
  0.704  27.1013
  0.700  27.0750
  0.696  27.0471
  0.692  27.0433
  0.688  27.0377
  0.684  27.0563
  0.680  27.0843
  0.676  27.0450
  0.672  27.0261
  0.668  27.0148
  0.664  27.0167
  0.660  27.0246
  0.656  27.0119
  0.652  27.0128
  0.648  27.0260
  0.644  27.0140
  0.640  27.0031
  0.636  27.0033
  0.632  27.0086
  0.628  27.0143
  0.624  27.0104
  0.620  27.0205
  0.616  27.0428
  0.612  27.0476
  0.608  27.0437
  0.604  27.0362
  0.600  27.0405
  0.596  27.0489
  0.592  27.0040
  0.588  26.9793
  0.584  26.9677
  0.580  26.9209
  0.576  26.8805
  0.572  26.8366
  0.568  26.7317
  0.564  26.6324
  0.560  26.5829
  0.556  26.5251
  0.552  26.4451
  0.548  26.3733
  0.544  26.3287
  0.540  26.2746
  0.536  26.2193
  0.532  26.1575
  0.528  26.0828
  0.524  26.0231
  0.520  25.9631
  0.516  25.9080
  0.512  25.8286
  0.508  25.7623
  0.504  25.7312
  0.500  25.6778
  0.496  25.6053
  0.492  25.5341
  0.488  25.4606
  0.484  25.3874
  0.480  25.3473
  0.476  25.3010
  0.472  25.2472
  0.468  25.1916
  0.464  25.1425
  0.460  25.0518
  0.456  24.9280
  0.452  24.8007
  0.448  24.6728
  0.444  24.5607
  0.440  24.4803
  0.436  24.3827
  0.432  24.2870
  0.428  24.2057
  0.424  24.0906
  0.420  23.9734
  0.416  23.8801
  0.412  23.7736
  0.408  23.6390
  0.404  23.4917
  0.400  23.3655
