Name: Rhyolite
Type: Rock
Class: Igneous
Subclass: Felsic
Particle Size: Whole Rock Chips
Sample No.: AP-939-221
Owner: United States Geological Survey, L. C. Rowan
Wavelength range: 0.405 - 14.05 um
Origin: Iberian Pyrite Belt, Spain

Description: Rhyolite, greenish, altered





Measurement: Directional Hemispherical Reflectance
First Column: X
Second Column: Y
X Units: Wavelength (micrometers)
Y Units: Reflectance (percent)
First X Value: 14.05105
Last X Value: 0.40500
Number of X Values: 2530
Additional Information: rhy221a.txt

 14.051   1.5965
 14.013   1.5141
 13.975   1.8231
 13.938   1.9055
 13.900   2.0291
 13.863   2.1012
 13.826   2.2351
 13.790   2.2145
 13.753   2.2660
 13.717   2.3896
 13.680   2.3999
 13.644   2.2660
 13.609   2.2969
 13.573   2.2866
 13.538   2.5029
 13.502   2.4308
 13.467   2.4617
 13.432   2.5235
 13.398   2.6471
 13.363   2.6883
 13.329   2.6677
 13.295   2.5029
 13.261   2.5029
 13.227   2.6162
 13.193   2.8325
 13.160   2.8222
 13.126   2.9046
 13.093   2.9252
 13.060   2.9870
 13.027   2.9973
 12.995   3.0385
 12.962   2.9870
 12.930   3.1209
 12.898   3.2239
 12.866   3.3372
 12.834   3.4093
 12.802   3.5226
 12.771   3.4608
 12.739   3.3578
 12.708   3.2239
 12.677   3.1312
 12.646   2.9561
 12.616   2.9870
 12.585   3.0591
 12.554   3.1518
 12.524   3.1724
 12.494   3.2342
 12.464   3.1415
 12.434   3.1209
 12.404   2.9561
 12.375   2.8634
 12.345   2.7501
 12.316   2.6780
 12.287   2.6265
 12.258   2.6574
 12.229   2.6471
 12.200   2.6986
 12.171   2.7398
 12.143   2.8222
 12.115   2.8531
 12.086   2.9149
 12.058   2.8943
 12.030   2.9870
 12.002   2.9561
 11.975   2.9767
 11.947   3.0488
 11.920   3.2136
 11.892   3.1827
 11.865   3.2342
 11.838   3.2754
 11.811   3.3681
 11.784   3.4402
 11.757   3.4917
 11.731   3.3887
 11.704   3.3990
 11.678   3.3887
 11.652   3.5638
 11.626   3.7595
 11.600   3.8213
 11.574   3.8213
 11.548   3.8419
 11.522   3.9243
 11.497   4.1097
 11.471   4.0582
 11.446   4.0994
 11.421   4.2333
 11.396   4.3981
 11.371   4.3569
 11.346   4.3466
 11.321   4.4393
 11.297   4.5835
 11.272   4.5732
 11.248   4.5938
 11.223   4.6350
 11.199   4.7792
 11.175   4.8307
 11.151   4.9646
 11.127   5.1912
 11.103   5.3972
 11.079   5.4899
 11.056   5.5826
 11.032   5.6444
 11.009   5.7989
 10.985   5.9637
 10.962   6.0461
 10.939   5.9431
 10.916   5.8195
 10.893   5.5826
 10.870   5.3869
 10.848   5.1603
 10.825   5.0161
 10.802   4.7792
 10.780   4.7277
 10.758   4.6865
 10.735   4.5938
 10.713   4.4599
 10.691   4.4599
 10.669   4.5217
 10.647   4.6144
 10.625   4.5629
 10.604   4.6144
 10.582   4.6144
 10.560   4.6350
 10.539   4.6659
 10.518   4.7277
 10.496   4.7792
 10.475   4.9337
 10.454   5.0779
 10.433   5.2942
 10.412   5.3560
 10.391   5.4590
 10.370   5.6547
 10.350   5.9328
 10.329   6.0152
 10.309   6.2212
 10.288   6.4581
 10.268   6.6744
 10.247   6.8186
 10.227   7.0967
 10.207   7.3542
 10.187   7.7250
 10.167   7.9928
 10.147   8.2091
 10.127   8.4151
 10.108   8.7344
 10.088   9.1155
 10.068   9.5584
 10.049   9.8983
 10.029  10.2691
 10.010  10.5987
  9.991  11.0313
  9.972  11.4433
  9.952  11.8244
  9.933  12.1128
  9.914  12.5145
  9.895  12.7308
  9.877  12.8235
  9.858  12.8235
  9.839  12.8750
  9.821  12.8750
  9.802  12.9471
  9.783  13.0707
  9.765  13.2664
  9.747  13.4930
  9.728  14.0183
  9.710  14.5951
  9.692  15.1101
  9.674  15.6251
  9.656  16.2019
  9.638  16.6139
  9.620  17.0465
  9.602  17.4585
  9.585  17.9220
  9.567  18.2310
  9.549  18.5400
  9.532  18.8078
  9.514  19.0962
  9.497  19.3022
  9.479  19.6009
  9.462  19.7245
  9.445  19.8893
  9.428  20.0232
  9.411  20.1159
  9.394  20.0953
  9.377  20.1262
  9.360  20.0541
  9.343  19.8790
  9.326  19.5391
  9.309  19.2816
  9.293  18.9108
  9.276  18.5400
  9.259  18.0868
  9.243  17.5821
  9.226  17.0465
  9.210  16.6139
  9.194  16.2019
  9.178  15.7590
  9.161  15.2028
  9.145  14.6672
  9.129  14.0801
  9.113  13.4827
  9.097  12.9883
  9.081  12.5969
  9.065  12.0922
  9.049  11.5875
  9.034  11.0004
  9.018  10.5472
  9.002  10.2279
  8.987  10.0940
  8.971  10.0631
  8.956  10.2485
  8.940  10.4236
  8.925  10.7738
  8.909  11.1652
  8.894  11.4536
  8.879  11.7523
  8.864  12.0407
  8.849  12.0510
  8.834  12.0098
  8.819  11.8450
  8.804  11.6699
  8.789  11.5257
  8.774  11.3815
  8.759  11.0725
  8.744  10.8356
  8.730  10.5678
  8.715  10.2691
  8.700  10.0013
  8.686   9.7953
  8.671   9.4039
  8.657   9.0228
  8.642   8.5902
  8.628   8.1782
  8.614   7.8383
  8.599   7.7765
  8.585   7.8074
  8.571   7.8589
  8.557   7.8074
  8.543   7.7765
  8.529   7.7353
  8.515   7.6941
  8.501   7.6220
  8.487   7.5602
  8.473   7.5602
  8.459   7.6941
  8.445   7.6014
  8.431   7.4675
  8.418   7.3851
  8.404   7.4160
  8.391   7.5190
  8.377   7.5396
  8.363   7.5499
  8.350   7.6426
  8.337   7.6941
  8.323   7.7559
  8.310   7.7456
  8.297   7.7971
  8.283   7.8692
  8.270   7.9207
  8.257   7.9001
  8.244   7.9928
  8.231   8.0237
  8.218   8.0031
  8.205   8.0237
  8.192   8.0134
  8.179   7.9722
  8.166   7.9516
  8.153   7.8486
  8.140   7.6735
  8.128   7.3130
  8.115   6.9216
  8.102   6.6023
  8.090   6.3551
  8.077   5.9740
  8.064   5.5723
  8.052   5.3148
  8.039   5.0985
  8.027   4.7689
  8.015   4.5114
  8.002   4.3157
  7.990   4.0582
  7.978   3.8110
  7.965   3.7389
  7.953   3.6153
  7.941   3.4608
  7.929   3.3063
  7.917   3.1106
  7.905   2.8737
  7.893   2.6883
  7.881   2.5132
  7.869   2.4823
  7.857   2.4102
  7.845   2.3175
  7.833   2.2454
  7.821   2.1836
  7.809   2.0600
  7.798   1.9982
  7.786   1.9776
  7.774   1.9776
  7.763   1.9776
  7.751   2.0085
  7.739   1.9982
  7.728   2.0085
  7.716   1.9158
  7.705   1.8437
  7.694   1.7819
  7.682   1.8025
  7.671   1.7819
  7.659   1.7510
  7.648   1.7098
  7.637   1.6789
  7.626   1.6480
  7.614   1.6583
  7.603   1.5862
  7.592   1.5862
  7.581   1.5656
  7.570   1.5656
  7.559   1.5347
  7.548   1.5347
  7.537   1.5244
  7.526   1.5656
  7.515   1.5759
  7.504   1.6068
  7.493   1.5759
  7.483   1.5656
  7.472   1.5141
  7.461   1.4626
  7.450   1.4420
  7.440   1.4935
  7.429   1.4935
  7.418   1.4626
  7.408   1.4317
  7.397   1.4317
  7.387   1.4214
  7.376   1.4729
  7.366   1.4935
  7.355   1.4729
  7.345   1.4317
  7.334   1.4832
  7.324   1.4420
  7.314   1.4008
  7.303   1.4008
  7.293   1.4111
  7.283   1.3287
  7.273   1.3493
  7.263   1.4626
  7.252   1.5244
  7.242   1.4626
  7.232   1.4111
  7.222   1.4317
  7.212   1.4523
  7.202   1.4729
  7.192   1.4420
  7.182   1.3905
  7.172   1.4420
  7.162   1.4523
  7.152   1.4729
  7.143   1.3802
  7.133   1.3905
  7.123   1.4317
  7.113   1.4111
  7.103   1.3905
  7.094   1.3596
  7.084   1.4111
  7.074   1.4523
  7.065   1.3699
  7.055   1.3493
  7.046   1.3493
  7.036   1.3699
  7.026   1.3905
  7.017   1.3390
  7.007   1.3184
  6.998   1.3802
  6.989   1.3493
  6.979   1.3493
  6.970   1.3596
  6.960   1.3596
  6.951   1.3905
  6.942   1.4420
  6.932   1.4008
  6.923   1.4317
  6.914   1.4729
  6.905   1.4626
  6.896   1.4420
  6.886   1.4626
  6.877   1.4317
  6.868   1.4008
  6.859   1.3905
  6.850   1.4935
  6.841   1.5656
  6.832   1.5553
  6.823   1.4626
  6.814   1.4832
  6.805   1.5347
  6.796   1.5862
  6.787   1.6171
  6.778   1.6068
  6.770   1.5553
  6.761   1.5553
  6.752   1.5759
  6.743   1.6068
  6.734   1.5656
  6.726   1.5553
  6.717   1.5759
  6.708   1.6377
  6.700   1.6480
  6.691   1.6377
  6.682   1.6171
  6.674   1.6377
  6.665   1.6274
  6.657   1.7098
  6.648   1.7716
  6.640   1.7407
  6.631   1.6995
  6.623   1.6789
  6.614   1.6480
  6.606   1.7098
  6.597   1.7304
  6.589   1.7407
  6.581   1.7922
  6.572   1.7716
  6.564   1.6995
  6.556   1.6995
  6.547   1.7304
  6.539   1.7304
  6.531   1.7201
  6.523   1.7819
  6.514   1.8334
  6.506   1.8643
  6.498   1.8746
  6.490   1.9158
  6.482   1.9158
  6.474   1.9570
  6.466   1.9467
  6.458   1.9055
  6.450   1.9158
  6.442   1.9261
  6.434   1.9364
  6.426   2.0085
  6.418   2.0085
  6.410   2.0188
  6.402   1.9879
  6.394   1.9467
  6.386   1.9570
  6.378   1.9673
  6.370   1.9467
  6.363   1.9570
  6.355   1.8849
  6.347   1.8540
  6.339   1.8643
  6.332   1.8437
  6.324   1.8437
  6.316   1.8334
  6.308   1.7613
  6.301   1.7407
  6.293   1.6995
  6.286   1.6686
  6.278   1.6789
  6.270   1.6480
  6.263   1.6480
  6.255   1.6377
  6.248   1.6171
  6.240   1.6480
  6.233   1.6377
  6.225   1.6686
  6.218   1.6480
  6.210   1.5656
  6.203   1.4935
  6.195   1.4832
  6.188   1.4729
  6.181   1.5141
  6.173   1.5141
  6.166   1.5553
  6.159   1.5347
  6.151   1.5141
  6.144   1.5450
  6.137   1.5862
  6.130   1.5553
  6.122   1.4729
  6.115   1.4626
  6.108   1.5244
  6.101   1.5553
  6.094   1.5450
  6.086   1.5141
  6.079   1.5759
  6.072   1.5450
  6.065   1.5038
  6.058   1.5450
  6.051   1.5965
  6.044   1.5450
  6.037   1.5759
  6.030   1.6171
  6.023   1.6171
  6.016   1.6068
  6.009   1.5862
  6.002   1.5244
  5.995   1.5244
  5.988   1.5965
  5.981   1.6583
  5.974   1.6480
  5.967   1.6377
  5.960   1.6274
  5.954   1.6068
  5.947   1.5862
  5.940   1.6377
  5.933   1.6686
  5.926   1.6686
  5.920   1.6480
  5.913   1.6686
  5.906   1.7098
  5.899   1.7716
  5.893   1.7819
  5.886   1.8231
  5.879   1.8540
  5.873   1.8540
  5.866   1.8746
  5.859   1.8849
  5.853   1.8643
  5.846   1.9158
  5.840   1.9364
  5.833   1.9879
  5.827   1.9982
  5.820   1.9982
  5.813   2.0703
  5.807   2.0806
  5.800   2.0806
  5.794   2.1527
  5.788   2.2248
  5.781   2.2454
  5.775   2.1939
  5.768   2.1527
  5.762   2.1630
  5.755   2.2145
  5.749   2.1836
  5.743   2.1733
  5.736   2.1527
  5.730   2.1630
  5.724   2.2145
  5.717   2.2866
  5.711   2.3175
  5.705   2.3072
  5.698   2.2557
  5.692   2.2454
  5.686   2.2763
  5.680   2.2969
  5.674   2.2866
  5.667   2.2866
  5.661   2.2763
  5.655   2.2866
  5.649   2.2969
  5.643   2.2763
  5.637   2.2454
  5.630   2.2145
  5.624   2.1939
  5.618   2.1939
  5.612   2.1733
  5.606   2.1321
  5.600   2.0909
  5.594   2.1012
  5.588   2.1733
  5.582   2.2248
  5.576   2.2145
  5.570   2.2145
  5.564   2.1733
  5.558   2.1939
  5.552   2.2145
  5.546   2.1733
  5.540   2.2248
  5.534   2.2763
  5.528   2.2454
  5.523   2.2969
  5.517   2.2969
  5.511   2.2866
  5.505   2.2660
  5.499   2.2660
  5.493   2.2969
  5.487   2.3175
  5.482   2.3175
  5.476   2.3381
  5.470   2.3896
  5.464   2.4102
  5.459   2.4308
  5.453   2.4514
  5.447   2.4205
  5.441   2.3999
  5.436   2.4308
  5.430   2.4617
  5.424   2.4617
  5.419   2.4514
  5.413   2.4102
  5.407   2.3587
  5.402   2.3690
  5.396   2.3690
  5.390   2.3690
  5.385   2.3690
  5.379   2.2969
  5.374   2.3175
  5.368   2.3381
  5.363   2.2763
  5.357   2.2660
  5.352   2.2763
  5.346   2.2454
  5.341   2.2969
  5.335   2.3072
  5.330   2.3278
  5.324   2.3278
  5.319   2.2454
  5.313   2.2351
  5.308   2.2866
  5.302   2.2866
  5.297   2.3484
  5.291   2.4308
  5.286   2.4514
  5.281   2.4308
  5.275   2.4514
  5.270   2.5029
  5.265   2.5647
  5.259   2.5853
  5.254   2.5544
  5.249   2.5235
  5.243   2.6059
  5.238   2.6986
  5.233   2.7501
  5.227   2.7604
  5.222   2.7810
  5.217   2.8222
  5.212   2.8634
  5.206   2.9252
  5.201   2.9561
  5.196   2.9355
  5.191   2.9458
  5.186   2.9664
  5.180   2.9973
  5.175   3.0591
  5.170   3.0694
  5.165   3.0591
  5.160   3.0694
  5.155   3.0694
  5.150   3.0797
  5.145   3.0591
  5.139   3.0385
  5.134   3.0694
  5.129   3.1621
  5.124   3.2033
  5.119   3.1930
  5.114   3.1827
  5.109   3.2239
  5.104   3.2239
  5.099   3.1827
  5.094   3.1518
  5.089   3.1827
  5.084   3.2445
  5.079   3.2136
  5.074   3.1518
  5.069   3.1827
  5.064   3.2136
  5.059   3.2548
  5.054   3.2445
  5.049   3.2033
  5.044   3.1827
  5.040   3.2239
  5.035   3.2445
  5.030   3.2754
  5.025   3.3166
  5.020   3.2857
  5.015   3.2754
  5.010   3.3063
  5.005   3.3166
  5.001   3.2857
  4.996   3.2754
  4.991   3.3578
  4.986   3.4196
  4.981   3.4711
  4.977   3.5020
  4.972   3.5329
  4.967   3.6359
  4.962   3.7801
  4.958   3.8213
  4.953   3.8213
  4.948   3.8419
  4.943   3.8831
  4.939   3.9449
  4.934   3.9964
  4.929   4.0376
  4.925   4.0891
  4.920   4.1200
  4.915   4.2024
  4.911   4.2951
  4.906   4.3981
  4.901   4.5114
  4.897   4.6041
  4.892   4.7586
  4.888   4.8925
  4.883   5.0058
  4.878   5.1294
  4.874   5.2324
  4.869   5.3869
  4.865   5.5002
  4.860   5.5620
  4.856   5.6032
  4.851   5.7165
  4.846   5.8504
  4.842   5.9225
  4.837   5.9843
  4.833   6.0564
  4.828   6.1388
  4.824   6.2109
  4.819   6.2109
  4.815   6.2315
  4.810   6.2521
  4.806   6.3242
  4.802   6.3345
  4.797   6.2933
  4.793   6.3036
  4.788   6.4272
  4.784   6.5199
  4.779   6.5302
  4.775   6.5405
  4.771   6.6023
  4.766   6.6744
  4.762   6.7156
  4.758   6.7671
  4.753   6.7980
  4.749   6.7877
  4.744   6.8598
  4.740   6.9834
  4.736   7.0040
  4.731   7.0555
  4.727   7.1791
  4.723   7.1791
  4.719   7.1791
  4.714   7.2306
  4.710   7.2409
  4.706   7.2409
  4.701   7.2615
  4.697   7.2615
  4.693   7.2718
  4.689   7.2718
  4.684   7.1997
  4.680   7.1894
  4.676   7.2100
  4.672   7.2924
  4.668   7.4057
  4.663   7.4881
  4.659   7.4778
  4.655   7.5499
  4.651   7.7559
  4.647   7.9310
  4.643   8.0443
  4.638   8.1576
  4.634   8.3018
  4.630   8.3533
  4.626   8.3533
  4.622   8.4666
  4.618   8.6005
  4.614   8.6932
  4.610   8.7859
  4.605   8.8992
  4.601   9.0228
  4.597   9.1052
  4.593   9.1876
  4.589   9.2494
  4.585   9.2494
  4.581   9.3215
  4.577   9.4142
  4.573   9.4863
  4.569   9.5687
  4.565   9.5790
  4.561   9.5893
  4.557   9.6202
  4.553   9.6099
  4.549   9.6408
  4.545   9.6511
  4.541   9.6408
  4.537   9.6717
  4.533   9.6614
  4.529   9.6305
  4.525   9.5996
  4.521   9.4966
  4.517   9.3524
  4.513   9.2700
  4.509   9.2288
  4.505   9.1464
  4.502   9.0537
  4.498   9.0331
  4.494   9.0022
  4.490   8.9301
  4.486   8.9301
  4.482   8.9713
  4.478   9.0331
  4.474   8.9404
  4.470   8.8992
  4.467   8.9713
  4.463   9.0434
  4.459   9.1258
  4.455   9.2494
  4.451   9.3936
  4.447   9.4554
  4.444   9.5584
  4.440   9.6717
  4.436   9.7541
  4.432   9.8571
  4.428   9.9498
  4.425  10.1043
  4.421  10.1970
  4.417  10.2897
  4.413  10.4030
  4.410  10.5060
  4.406  10.6193
  4.402  10.7635
  4.398  10.8768
  4.395  11.0416
  4.391  11.2476
  4.387  11.3918
  4.384  11.5257
  4.380  11.6493
  4.376  11.8759
  4.372  12.0407
  4.369  12.0819
  4.365  12.2673
  4.361  12.4836
  4.358  12.6278
  4.354  12.7617
  4.350  12.8544
  4.347  12.9059
  4.343  13.0501
  4.340  13.1634
  4.336  13.2561
  4.332  13.3076
  4.329  13.4106
  4.325  13.4930
  4.321  13.5239
  4.318  13.5857
  4.314  13.6372
  4.311  13.6578
  4.307  13.6269
  4.304  13.6166
  4.300  13.6784
  4.296  13.6990
  4.293  13.6578
  4.289  13.6887
  4.286  13.7711
  4.282  13.8535
  4.279  13.8741
  4.275  13.9256
  4.272  14.0286
  4.268  14.0595
  4.265  14.0698
  4.261  14.1419
  4.258  14.2964
  4.254  14.3891
  4.251  14.4921
  4.247  14.6157
  4.244  14.6054
  4.240  14.5436
  4.237  14.5745
  4.233  14.5848
  4.230  14.5745
  4.226  14.6878
  4.223  14.7187
  4.219  14.6878
  4.216  14.7599
  4.213  14.7908
  4.209  14.8526
  4.206  14.9556
  4.202  15.0071
  4.199  15.0174
  4.196  14.9350
  4.192  14.9556
  4.189  15.0483
  4.185  15.0586
  4.182  15.1925
  4.179  15.3264
  4.175  15.3367
  4.172  15.3470
  4.169  15.3573
  4.165  15.4706
  4.162  15.6354
  4.159  15.6663
  4.155  15.6766
  4.152  15.7281
  4.149  15.7693
  4.145  15.8414
  4.142  15.9650
  4.139  16.0474
  4.135  16.0783
  4.132  16.0886
  4.129  16.1195
  4.126  16.1916
  4.122  16.2843
  4.119  16.3049
  4.116  16.3152
  4.112  16.3976
  4.109  16.5418
  4.106  16.6345
  4.103  16.6654
  4.099  16.6757
  4.096  16.7684
  4.093  16.7890
  4.090  16.8405
  4.086  16.9332
  4.083  17.0362
  4.080  17.0671
  4.077  17.1804
  4.074  17.2628
  4.070  17.2525
  4.067  17.2628
  4.064  17.3555
  4.061  17.3864
  4.058  17.3349
  4.055  17.2834
  4.051  17.2937
  4.048  17.2628
  4.045  17.3246
  4.042  17.4276
  4.039  17.4482
  4.036  17.3864
  4.032  17.3864
  4.029  17.4276
  4.026  17.4585
  4.023  17.4379
  4.020  17.3658
  4.017  17.3143
  4.014  17.3452
  4.011  17.3452
  4.008  17.3761
  4.004  17.4173
  4.001  17.3967
  3.998  17.3143
  3.995  17.3040
  3.992  17.3143
  3.989  17.3555
  3.986  17.3143
  3.983  17.2937
  3.980  17.2937
  3.977  17.3761
  3.974  17.4173
  3.971  17.4482
  3.968  17.4585
  3.965  17.5306
  3.962  17.6130
  3.959  17.7366
  3.956  17.8190
  3.953  17.8808
  3.950  17.8705
  3.947  17.9323
  3.944  18.0662
  3.941  18.1692
  3.938  18.2310
  3.935  18.2413
  3.932  18.2722
  3.929  18.3649
  3.926  18.4164
  3.923  18.3958
  3.920  18.4267
  3.917  18.4679
  3.914  18.4576
  3.911  18.4576
  3.908  18.4164
  3.905  18.4267
  3.902  18.4267
  3.899  18.4267
  3.896  18.4473
  3.893  18.4782
  3.890  18.4782
  3.887  18.4473
  3.884  18.2722
  3.882  18.2104
  3.879  18.2413
  3.876  18.3134
  3.873  18.3443
  3.870  18.2722
  3.867  18.2207
  3.864  18.3443
  3.861  18.4267
  3.858  18.2928
  3.856  18.0971
  3.853  18.1177
  3.850  18.1795
  3.847  18.1486
  3.844  18.1589
  3.841  18.1898
  3.838  18.0868
  3.836  18.0868
  3.833  18.0971
  3.830  18.1383
  3.827  18.1589
  3.824  18.2413
  3.822  18.3340
  3.819  18.3340
  3.816  18.2207
  3.813  18.2516
  3.810  18.2207
  3.807  18.1795
  3.805  18.2928
  3.802  18.2619
  3.799  18.1486
  3.796  18.0662
  3.794  17.9735
  3.791  17.9941
  3.788  17.9529
  3.785  17.8705
  3.782  17.8705
  3.780  17.8705
  3.777  17.7572
  3.774  17.6336
  3.771  17.5409
  3.769  17.4688
  3.766  17.3864
  3.763  17.3967
  3.761  17.3040
  3.758  17.1701
  3.755  17.0362
  3.752  16.9744
  3.750  16.8920
  3.747  16.8199
  3.744  16.7375
  3.742  16.7066
  3.739  16.7169
  3.736  16.6860
  3.733  16.5933
  3.731  16.5727
  3.728  16.5315
  3.725  16.4594
  3.723  16.4491
  3.720  16.4388
  3.717  16.3976
  3.715  16.3358
  3.712  16.3049
  3.709  16.2534
  3.707  16.2534
  3.704  16.3152
  3.702  16.2740
  3.699  16.2225
  3.696  16.2225
  3.694  16.2431
  3.691  16.2225
  3.688  16.1504
  3.686  16.0577
  3.683  16.1401
  3.680  16.1607
  3.678  16.1607
  3.675  16.1504
  3.673  16.0886
  3.670  16.0783
  3.667  16.0783
  3.665  16.0268
  3.662  16.0062
  3.660  15.9856
  3.657  16.0268
  3.655  16.0371
  3.652  15.9650
  3.649  15.8517
  3.647  15.7899
  3.644  15.7281
  3.642  15.6972
  3.639  15.7075
  3.637  15.7590
  3.634  15.6045
  3.632  15.4912
  3.629  15.4912
  3.626  15.5015
  3.624  15.4809
  3.621  15.4191
  3.619  15.2543
  3.616  15.1616
  3.614  15.0895
  3.611  15.0895
  3.609  15.0998
  3.606  14.9453
  3.604  14.7908
  3.601  14.8011
  3.599  14.7702
  3.596  14.6260
  3.594  14.5024
  3.591  14.3788
  3.589  14.2758
  3.586  14.2861
  3.584  14.2140
  3.581  14.1007
  3.579  13.9565
  3.576  13.8844
  3.574  13.9050
  3.571  13.8741
  3.569  13.7402
  3.567  13.5857
  3.564  13.5033
  3.562  13.4930
  3.559  13.3900
  3.557  13.2252
  3.554  13.0913
  3.552  13.0707
  3.549  13.0604
  3.547  13.0398
  3.545  12.9471
  3.542  12.8338
  3.540  12.7102
  3.537  12.6793
  3.535  12.5866
  3.533  12.4218
  3.530  12.3806
  3.528  12.3497
  3.525  12.2570
  3.523  12.1952
  3.521  12.0819
  3.518  12.0407
  3.516  12.0098
  3.513  11.9583
  3.511  11.8347
  3.509  11.7935
  3.506  11.7729
  3.504  11.7420
  3.502  11.5978
  3.499  11.4742
  3.497  11.3815
  3.494  11.3712
  3.492  11.3815
  3.490  11.4021
  3.487  11.3197
  3.485  11.3197
  3.483  11.3197
  3.480  11.2888
  3.478  11.2476
  3.476  11.2476
  3.473  11.2167
  3.471  11.2579
  3.469  11.2579
  3.466  11.2785
  3.464  11.1652
  3.462  11.1961
  3.460  11.1755
  3.457  10.9695
  3.455  10.8253
  3.453  10.8665
  3.450  10.8562
  3.448  10.8459
  3.446  10.8150
  3.443  10.7326
  3.441  10.5575
  3.439  10.5369
  3.437  10.5266
  3.434  10.4442
  3.432  10.2691
  3.430  10.1558
  3.428  10.1867
  3.425  10.1146
  3.423  10.0116
  3.421   9.8777
  3.418   9.7438
  3.416   9.7541
  3.414   9.6820
  3.412   9.5893
  3.409   9.5790
  3.407   9.4554
  3.405   9.3833
  3.403   9.4039
  3.401   9.4039
  3.398   9.3009
  3.396   9.1258
  3.394   9.1876
  3.392   9.1773
  3.389   9.0846
  3.387   8.9816
  3.385   8.8992
  3.383   8.8477
  3.381   8.8889
  3.378   8.9301
  3.376   8.8477
  3.374   8.6314
  3.372   8.6211
  3.370   8.5799
  3.367   8.4563
  3.365   8.3636
  3.363   8.4357
  3.361   8.4048
  3.359   8.3842
  3.357   8.3430
  3.354   8.3842
  3.352   8.3327
  3.350   8.1988
  3.348   8.0752
  3.346   8.1164
  3.344   8.1370
  3.341   8.0546
  3.339   7.9722
  3.337   8.0134
  3.335   7.9619
  3.333   7.9001
  3.331   7.9207
  3.329   7.8280
  3.326   7.6838
  3.324   7.6014
  3.322   7.5911
  3.320   7.6426
  3.318   7.5705
  3.316   7.5293
  3.314   7.4778
  3.312   7.4366
  3.309   7.4263
  3.307   7.4057
  3.305   7.3336
  3.303   7.3027
  3.301   7.2615
  3.299   7.1997
  3.297   7.0967
  3.295   7.0143
  3.293   6.9937
  3.291   6.9834
  3.288   6.9525
  3.286   6.9731
  3.284   6.9216
  3.282   6.8289
  3.280   6.6847
  3.278   6.6847
  3.276   6.7156
  3.274   6.6435
  3.272   6.4890
  3.270   6.5405
  3.268   6.5714
  3.266   6.4787
  3.264   6.4066
  3.262   6.3345
  3.259   6.2830
  3.257   6.3963
  3.255   6.3963
  3.253   6.3036
  3.251   6.2521
  3.249   6.2006
  3.247   6.0873
  3.245   6.1182
  3.243   6.1903
  3.241   6.1285
  3.239   5.9843
  3.237   5.9843
  3.235   5.9843
  3.233   5.9740
  3.231   5.9328
  3.229   5.9740
  3.227   5.9637
  3.225   5.9225
  3.223   5.7886
  3.221   5.8092
  3.219   5.7680
  3.217   5.7165
  3.215   5.6341
  3.213   5.5723
  3.211   5.6238
  3.209   5.6341
  3.207   5.6238
  3.205   5.5929
  3.203   5.5208
  3.201   5.4899
  3.199   5.4281
  3.197   5.4384
  3.195   5.3560
  3.193   5.2530
  3.191   5.2324
  3.189   5.2221
  3.187   5.1500
  3.185   5.1191
  3.183   5.0573
  3.182   5.0985
  3.180   5.0161
  3.178   4.9955
  3.176   4.9337
  3.174   4.9440
  3.172   4.8925
  3.170   4.7586
  3.168   4.7586
  3.166   4.8204
  3.164   4.7277
  3.162   4.7792
  3.160   4.7895
  3.158   4.6968
  3.156   4.6556
  3.154   4.5526
  3.152   4.3775
  3.151   4.4187
  3.149   4.4496
  3.147   4.4496
  3.145   4.3157
  3.143   4.3157
  3.141   4.3672
  3.139   4.3981
  3.137   4.3054
  3.135   4.1406
  3.133   4.0376
  3.132   4.1406
  3.130   4.1406
  3.128   4.0788
  3.126   4.1303
  3.124   4.1097
  3.122   4.0582
  3.120   4.0994
  3.118   4.0891
  3.117   4.0273
  3.115   3.9243
  3.113   3.8110
  3.111   3.8007
  3.109   3.8625
  3.107   3.8316
  3.105   3.8316
  3.103   3.8419
  3.102   3.8625
  3.100   3.7183
  3.098   3.6256
  3.096   3.5844
  3.094   3.5947
  3.092   3.5535
  3.091   3.5947
  3.089   3.6256
  3.087   3.6874
  3.085   3.6977
  3.083   3.7904
  3.081   3.7389
  3.079   3.6462
  3.078   3.5123
  3.076   3.4299
  3.074   3.5432
  3.072   3.6874
  3.070   3.6565
  3.069   3.5844
  3.067   3.4814
  3.065   3.4299
  3.063   3.3475
  3.061   3.4711
  3.060   3.5020
  3.058   3.5020
  3.056   3.4917
  3.054   3.4917
  3.052   3.4093
  3.051   3.4196
  3.049   3.4608
  3.047   3.4711
  3.045   3.3475
  3.043   3.3372
  3.042   3.3784
  3.040   3.5432
  3.038   3.5741
  3.036   3.3372
  3.034   3.1518
  3.033   3.2857
  3.031   3.2857
  3.029   3.3990
  3.027   3.5535
  3.026   3.4093
  3.024   3.2548
  3.022   3.3990
  3.020   3.3784
  3.019   3.3990
  3.017   3.5329
  3.015   3.5432
  3.013   3.4299
  3.012   3.5535
  3.010   3.5638
  3.008   3.5535
  3.006   3.3166
  3.005   3.2342
  3.003   3.3063
  3.001   3.4093
  2.999   3.3990
  2.998   3.3372
  2.996   3.3475
  2.994   3.4196
  2.992   3.3990
  2.991   3.4196
  2.989   3.3681
  2.987   3.4196
  2.986   3.3990
  2.984   3.2445
  2.982   3.1003
  2.980   3.1621
  2.979   3.1724
  2.977   3.2136
  2.975   3.1827
  2.974   3.1209
  2.972   3.1518
  2.970   3.2445
  2.968   3.1930
  2.967   3.1106
  2.965   3.1724
  2.963   3.2445
  2.962   3.1106
  2.960   3.0076
  2.958   3.1415
  2.957   3.3372
  2.955   3.2857
  2.953   3.1106
  2.952   3.1415
  2.950   3.1827
  2.948   3.1518
  2.947   3.2033
  2.945   3.1106
  2.943   3.2239
  2.942   3.3475
  2.940   3.2136
  2.938   2.9767
  2.937   3.0797
  2.935   3.1518
  2.933   3.1518
  2.932   3.3166
  2.930   3.3269
  2.928   3.1724
  2.927   3.1621
  2.925   3.1415
  2.923   3.0385
  2.922   3.1621
  2.920   3.2136
  2.918   3.0488
  2.917   3.2754
  2.915   3.1827
  2.913   3.0797
  2.912   3.1621
  2.910   3.3372
  2.909   3.2548
  2.907   3.2033
  2.905   3.1312
  2.904   3.1209
  2.902   3.2651
  2.900   3.4093
  2.899   3.4711
  2.897   3.5741
  2.896   3.5535
  2.894   3.4711
  2.892   3.3269
  2.891   3.3063
  2.889   3.2754
  2.887   3.2960
  2.886   3.2033
  2.884   3.2548
  2.883   3.2136
  2.881   3.2033
  2.879   3.3887
  2.878   3.5329
  2.876   3.4814
  2.875   3.4608
  2.873   3.4608
  2.871   3.4917
  2.870   3.3063
  2.868   3.0179
  2.867   3.1518
  2.865   3.3990
  2.864   3.4917
  2.862   3.3578
  2.860   3.1209
  2.859   3.2857
  2.857   3.3681
  2.856   3.3887
  2.854   3.3578
  2.853   3.3578
  2.851   3.3990
  2.849   3.4402
  2.848   3.4299
  2.846   3.3269
  2.845   3.2136
  2.843   3.1827
  2.842   3.2342
  2.840   3.2857
  2.838   3.2445
  2.837   3.2960
  2.835   3.4093
  2.834   3.4505
  2.832   3.2651
  2.831   3.1827
  2.829   3.1621
  2.828   3.1518
  2.826   3.2445
  2.825   3.4814
  2.823   3.4402
  2.821   3.2651
  2.820   3.0385
  2.818   2.9870
  2.817   2.8428
  2.815   2.9355
  2.814   3.0179
  2.812   3.0282
  2.811   2.9458
  2.809   3.0076
  2.808   2.9767
  2.806   3.1106
  2.805   3.0385
  2.803   2.7707
  2.802   2.4411
  2.800   2.4514
  2.799   2.6471
  2.797   2.7810
  2.796   2.8531
  2.794   2.8119
  2.793   2.5338
  2.791   2.5235
  2.790   2.6883
  2.788   2.8222
  2.787   2.8325
  2.785   2.6265
  2.784   2.5441
  2.782   2.8222
  2.781   2.8016
  2.779   2.6986
  2.778   2.4205
  2.776   2.4205
  2.775   2.4720
  2.773   2.4411
  2.772   2.4308
  2.770   2.5235
  2.769   2.3278
  2.767   2.3587
  2.766   2.3278
  2.764   2.1836
  2.763   2.1527
  2.761   2.1939
  2.760   2.2042
  2.758   2.1836
  2.757   2.0703
  2.756   1.9776
  2.754   1.8952
  2.753   2.0394
  2.751   2.0188
  2.750   1.9261
  2.748   1.9055
  2.747   2.1630
  2.745   2.1630
  2.744   1.9570
  2.742   2.1321
  2.741   2.2248
  2.740   2.1321
  2.738   2.2042
  2.737   2.1012
  2.735   2.0394
  2.734   2.2145
  2.732   2.3999
  2.731   2.4514
  2.729   2.4205
  2.728   2.3999
  2.727   2.4720
  2.725   2.2660
  2.724   2.2557
  2.722   2.3278
  2.721   2.6162
  2.719   2.7295
  2.718   2.7089
  2.717   2.6986
  2.715   3.0797
  2.714   3.2033
  2.712   2.9149
  2.711   2.7192
  2.709   2.7810
  2.708   2.9252
  2.707   2.8428
  2.705   2.7913
  2.704   2.8531
  2.702   2.9767
  2.701   2.9870
  2.700   2.7295
  2.698   2.8222
  2.697   3.0797
  2.695   3.1724
  2.694   3.2342
  2.693   3.8213
  2.691   4.4599
  2.690   5.2118
  2.688   5.7680
  2.687   6.3963
  2.686   7.1894
  2.684   7.8486
  2.683   8.4357
  2.681   9.1258
  2.680   9.7438
  2.679  10.3618
  2.677  10.5369
  2.676  10.6399
  2.675  11.0107
  2.673  11.5875
  2.672  12.1025
  2.670  12.5454
  2.669  12.9265
  2.668  13.2149
  2.666  13.2973
  2.665  13.4415
  2.664  13.9050
  2.662  14.4097
  2.661  14.5745
  2.659  14.6672
  2.658  14.7187
  2.657  15.0689
  2.655  15.4603
  2.654  15.5530
  2.653  15.6354
  2.651  16.0062
  2.650  16.1298
  2.649  16.3152
  2.647  16.2843
  2.646  16.4903
  2.645  16.8199
  2.643  16.8714
  2.642  16.7169
  2.640  16.8920
  2.639  17.2010
  2.638  17.2937
  2.636  17.1289
  2.635  17.0362
  2.634  17.3246
  2.632  17.5615
  2.631  17.4997
  2.630  17.5821
  2.628  17.6954
  2.627  17.6645
  2.626  17.4585
  2.624  17.4070
  2.623  17.5306
  2.622  17.7675
  2.620  17.6542
  2.619  17.4070
  2.618  17.3349
  2.617  17.4997
  2.615  17.7572
  2.614  17.8808
  2.613  17.7778
  2.611  17.8808
  2.610  18.0250
  2.609  18.1177
  2.607  18.0044
  2.606  17.9838
  2.605  18.1177
  2.603  18.2413
  2.602  18.2619
  2.601  18.4473
  2.599  18.4885
  2.598  18.4267
  2.597  18.4988
  2.596  18.7048
  2.594  18.8387
  2.593  18.8696
  2.592  18.8902
  2.590  18.8284
  2.589  18.5812
  2.588  18.7357
  2.586  18.8696
  2.585  19.1786
  2.584  19.1786
  2.583  19.1374
  2.581  19.2816
  2.580  19.5597
  2.579  19.6318
  2.577  19.4979
  2.576  19.7451
  2.575  19.8481
  2.574  19.4361
  2.572  19.5082
  2.571  19.6215
  2.570  19.9511
  2.569  20.4661
  2.567  20.3631
  2.566  20.0953
  2.565  20.3631
  2.563  20.3940
  2.562  20.1468
  2.561  20.1983
  2.560  20.6618
  2.558  20.7854
  2.557  20.5279
  2.556  20.4558
  2.555  20.5279
  2.553  20.7545
  2.552  20.9296
  2.551  20.7236
  2.550  20.9708
  2.548  21.2386
  2.547  20.9399
  2.546  20.7957
  2.545  20.9193
  2.543  20.5485
  2.542  20.4970
  2.541  20.9914
  2.540  21.4240
  2.538  21.2798
  2.537  21.3931
  2.536  21.1665
  2.535  21.0738
  2.533  21.0841
  2.532  20.9811
  2.531  20.8060
  2.530  20.8678
  2.528  21.1253
  2.527  21.3725
  2.526  21.2283
  2.525  21.1459
  2.524  21.0841
  2.522  21.1871
  2.521  20.9811
  2.520  21.0429
  2.519  21.1768
  2.517  21.3519
  2.516  21.1665
  2.515  20.7854
  2.514  20.8472
  2.513  21.0635
  2.511  20.9708
  2.510  20.9090
  2.509  20.8472
  2.508  20.6721
  2.506  20.5794
  2.505  20.6206
  2.504  20.7751
  2.503  20.9811
  2.502  20.7545
  2.500  20.7957
  2.497  20.7957
  2.493  20.6957
  2.489  20.3957
  2.485  20.1957
  2.481  19.7957
  2.477  19.5957
  2.473  19.2957
  2.469  18.8957
  2.465  18.6957
  2.461  18.4957
  2.457  18.1957
  2.453  18.0957
  2.449  17.9957
  2.445  17.7957
  2.441  17.7957
  2.437  17.9957
  2.433  17.9957
  2.429  18.0957
  2.425  18.4957
  2.421  18.7957
  2.417  19.0957
  2.413  19.3957
  2.409  19.7957
  2.405  20.2957
  2.401  20.4957
  2.397  20.7957
  2.393  20.7957
  2.389  20.8957
  2.385  20.8957
  2.381  20.8957
  2.377  20.7957
  2.373  20.4957
  2.369  20.1957
  2.365  19.6957
  2.361  19.3957
  2.357  19.3957
  2.353  18.8957
  2.349  18.6957
  2.345  18.7957
  2.341  19.0957
  2.337  19.2957
  2.333  19.6957
  2.329  20.3957
  2.325  21.2957
  2.321  21.9957
  2.317  23.1957
  2.313  24.5957
  2.309  25.7957
  2.305  26.8957
  2.301  27.5957
  2.297  30.6957
  2.293  30.6957
  2.289  31.4957
  2.285  32.2957
  2.281  33.3957
  2.277  34.0957
  2.273  34.1957
  2.269  33.6957
  2.265  33.1957
  2.261  32.3957
  2.257  30.9957
  2.253  30.0957
  2.249  28.6957
  2.245  27.4957
  2.241  25.9957
  2.237  24.6957
  2.233  23.5957
  2.229  22.0957
  2.225  20.8957
  2.221  19.7957
  2.217  19.0957
  2.213  18.7957
  2.209  18.7957
  2.205  19.2957
  2.201  20.2957
  2.197  21.8957
  2.193  23.5957
  2.189  25.4957
  2.185  27.8957
  2.181  29.8957
  2.177  31.9957
  2.173  34.0957
  2.169  36.1957
  2.165  38.0957
  2.161  39.6957
  2.157  40.7957
  2.153  42.0957
  2.149  42.9957
  2.145  43.6957
  2.141  44.5957
  2.137  45.2957
  2.133  45.5957
  2.129  45.7957
  2.125  45.5957
  2.121  45.7957
  2.117  46.4957
  2.113  47.2957
  2.109  48.2957
  2.105  48.6957
  2.101  49.4957
  2.097  50.1957
  2.093  51.0957
  2.089  52.1957
  2.085  52.8957
  2.081  53.3957
  2.077  53.6957
  2.073  54.1957
  2.069  54.5957
  2.065  54.6957
  2.061  54.7957
  2.057  55.1957
  2.053  55.1957
  2.049  55.0957
  2.045  55.1957
  2.041  55.2957
  2.037  54.9957
  2.033  54.7957
  2.029  54.5957
  2.025  54.0957
  2.021  53.9957
  2.017  53.6957
  2.013  53.5957
  2.009  53.4957
  2.005  52.9957
  2.001  52.5957
  1.997  52.3957
  1.993  51.8957
  1.989  51.3957
  1.985  50.8957
  1.981  50.6957
  1.977  50.2957
  1.973  49.6957
  1.969  49.3957
  1.965  49.1957
  1.961  48.9957
  1.957  48.4957
  1.953  47.9957
  1.949  47.5957
  1.945  47.3957
  1.941  46.8957
  1.937  46.6957
  1.933  46.0957
  1.929  45.6957
  1.925  45.1957
  1.921  44.4957
  1.917  43.8957
  1.913  43.5957
  1.909  43.4957
  1.905  43.8957
  1.901  44.6957
  1.897  46.1957
  1.893  48.2957
  1.889  50.2957
  1.885  52.2957
  1.881  55.2957
  1.877  58.2957
  1.873  59.6957
  1.869  60.1957
  1.865  60.2957
  1.861  61.0957
  1.857  62.7957
  1.853  64.0957
  1.849  65.1957
  1.845  65.5957
  1.841  66.0957
  1.837  66.2957
  1.833  66.1957
  1.829  66.1957
  1.825  66.7957
  1.821  66.7957
  1.817  67.0957
  1.813  67.1957
  1.809  67.3957
  1.805  67.4957
  1.801  67.4957
  1.797  67.2957
  1.793  67.1957
  1.789  67.2957
  1.785  67.4957
  1.781  67.4957
  1.777  67.6957
  1.773  67.7957
  1.769  67.7957
  1.765  68.1957
  1.761  67.9957
  1.757  67.6957
  1.753  67.4957
  1.749  67.4957
  1.745  67.7957
  1.741  67.8957
  1.737  68.1957
  1.733  68.4957
  1.729  68.5957
  1.725  68.5957
  1.721  68.1957
  1.717  68.1957
  1.713  67.9957
  1.709  67.6957
  1.705  67.7957
  1.701  67.7957
  1.697  67.6957
  1.693  67.6957
  1.689  67.6957
  1.685  67.9957
  1.681  67.9957
  1.677  67.6957
  1.673  67.4957
  1.669  67.2957
  1.665  67.1957
  1.661  67.3957
  1.657  66.8957
  1.653  66.7957
  1.649  66.8957
  1.645  66.6957
  1.641  66.8957
  1.637  66.6957
  1.633  66.5957
  1.629  66.3957
  1.625  66.3957
  1.621  65.6957
  1.617  65.4957
  1.613  65.4957
  1.609  65.5957
  1.605  65.6957
  1.601  65.6957
  1.597  65.4957
  1.593  65.1957
  1.589  64.5957
  1.585  64.5957
  1.581  64.5957
  1.577  64.1957
  1.573  64.0957
  1.569  63.8957
  1.565  63.5957
  1.561  63.2957
  1.557  63.0957
  1.553  62.9957
  1.549  62.6957
  1.545  62.2957
  1.541  62.2957
  1.537  61.8957
  1.533  61.8957
  1.529  61.8957
  1.525  61.3957
  1.521  61.2957
  1.517  60.7957
  1.513  60.4957
  1.509  60.2957
  1.505  60.0957
  1.501  59.5957
  1.497  59.3957
  1.493  59.1957
  1.489  58.7957
  1.485  58.4957
  1.481  58.2957
  1.477  57.7957
  1.473  57.2957
  1.469  57.1957
  1.465  56.7957
  1.461  56.6957
  1.457  56.5957
  1.453  56.5957
  1.449  55.7957
  1.445  54.9957
  1.441  53.8957
  1.437  51.9957
  1.433  49.9957
  1.429  46.9957
  1.425  43.5957
  1.421  40.1957
  1.417  36.7957
  1.413  33.7957
  1.409  32.4957
  1.405  32.4957
  1.401  34.1957
  1.397  37.2957
  1.393  40.7957
  1.389  43.5957
  1.385  47.2957
  1.381  49.6957
  1.377  50.2957
  1.373  51.7957
  1.369  53.9957
  1.365  54.5957
  1.361  53.9957
  1.357  53.4957
  1.353  54.1957
  1.349  54.1957
  1.345  54.5957
  1.341  54.5957
  1.337  54.5957
  1.333  54.0957
  1.329  53.8957
  1.325  53.3957
  1.321  53.0957
  1.317  52.9957
  1.313  52.7957
  1.309  52.7957
  1.305  52.3957
  1.301  52.2957
  1.297  51.8957
  1.293  51.7957
  1.289  51.6957
  1.285  51.4957
  1.281  51.2957
  1.277  51.0957
  1.273  50.7957
  1.269  50.2957
  1.265  50.2957
  1.261  50.1957
  1.257  49.9957
  1.253  49.5957
  1.249  49.1957
  1.245  48.8957
  1.241  48.8957
  1.237  48.5957
  1.233  48.4957
  1.229  48.3957
  1.225  48.0957
  1.221  47.9957
  1.217  47.4957
  1.213  47.1957
  1.209  46.8957
  1.205  46.7957
  1.201  46.4957
  1.197  46.1957
  1.193  45.8957
  1.189  45.7957
  1.185  45.6957
  1.181  45.3957
  1.177  45.2957
  1.173  45.2957
  1.169  45.0957
  1.165  44.7957
  1.161  44.7957
  1.157  44.4957
  1.153  44.0957
  1.149  43.8957
  1.145  43.8957
  1.141  43.6957
  1.137  43.8957
  1.133  43.5957
  1.129  43.4957
  1.125  42.9957
  1.121  43.0957
  1.117  42.5957
  1.113  42.3957
  1.109  42.8957
  1.105  42.8957
  1.101  42.8957
  1.097  43.0957
  1.093  42.8957
  1.089  42.4957
  1.085  42.3957
  1.081  42.4957
  1.077  42.5957
  1.073  42.5957
  1.069  42.7957
  1.065  42.5957
  1.061  42.5957
  1.057  42.4957
  1.053  42.3957
  1.049  42.3957
  1.045  42.2957
  1.041  42.2957
  1.037  42.3957
  1.033  42.4957
  1.029  42.3957
  1.025  42.3957
  1.021  42.3957
  1.017  42.5957
  1.013  42.4957
  1.009  42.5957
  1.005  42.5957
  1.001  42.3957
  0.997  42.2957
  0.993  42.5957
  0.989  42.4957
  0.985  41.9957
  0.981  41.8957
  0.977  42.0957
  0.973  41.8957
  0.969  41.4957
  0.965  41.6957
  0.961  41.3957
  0.957  40.9957
  0.953  41.1957
  0.949  41.1957
  0.945  40.9957
  0.941  40.8957
  0.937  40.8957
  0.933  40.7957
  0.929  40.7957
  0.925  40.5957
  0.921  40.3957
  0.917  40.3957
  0.913  40.3957
  0.909  40.5957
  0.905  40.1957
  0.901  40.3957
  0.897  40.3957
  0.893  40.3957
  0.889  40.0957
  0.885  40.1957
  0.881  40.2957
  0.877  40.3957
  0.873  40.3957
  0.869  40.7957
  0.865  40.8957
  0.861  40.7957
  0.857  40.7957
  0.853  40.8957
  0.849  40.8957
  0.845  41.1957
  0.841  41.2957
  0.837  41.3957
  0.833  41.3957
  0.829  41.4957
  0.825  41.3957
  0.821  41.2957
  0.817  41.4957
  0.813  41.3957
  0.809  41.6957
  0.805  41.3957
  0.804  40.6957
  0.803  40.9957
  0.802  40.5957
  0.801  40.9957
  0.800  40.8957
  0.799  40.8957
  0.798  40.9957
  0.797  41.1957
  0.796  41.0957
  0.795  40.5957
  0.794  40.6957
  0.793  40.3957
  0.792  40.4957
  0.791  40.8957
  0.790  40.6957
  0.789  40.4957
  0.788  40.4957
  0.787  40.6957
  0.786  40.8957
  0.785  40.8957
  0.784  40.6957
  0.783  40.6957
  0.782  40.5957
  0.781  40.1957
  0.780  40.1957
  0.779  40.3957
  0.778  40.3957
  0.777  40.1957
  0.776  40.1957
  0.775  40.1957
  0.774  40.4957
  0.773  40.5957
  0.772  40.5957
  0.771  40.4957
  0.770  40.0957
  0.769  40.3957
  0.768  40.3957
  0.767  40.3957
  0.766  40.1957
  0.765  40.0957
  0.764  40.1957
  0.763  40.3957
  0.762  40.0957
  0.761  40.1957
  0.760  40.4957
  0.759  40.5957
  0.758  40.5957
  0.757  40.3957
  0.756  40.3957
  0.755  40.4957
  0.754  40.1957
  0.753  40.1957
  0.752  40.4957
  0.751  40.3957
  0.750  40.1957
  0.749  40.3957
  0.748  40.1957
  0.747  40.1957
  0.746  40.5957
  0.745  40.5957
  0.744  40.4957
  0.743  40.1957
  0.742  40.0957
  0.741  40.3957
  0.740  40.3957
  0.739  40.8957
  0.738  40.6957
  0.737  40.5957
  0.736  40.4957
  0.735  40.3957
  0.734  40.5957
  0.733  40.5957
  0.732  40.5957
  0.731  40.6957
  0.730  40.8957
  0.729  40.5957
  0.728  40.5957
  0.727  40.9957
  0.726  40.4957
  0.725  40.3957
  0.724  40.1957
  0.723  40.3957
  0.722  40.6957
  0.721  40.8957
  0.720  40.5957
  0.719  40.5957
  0.718  40.4957
  0.717  40.4957
  0.716  40.3957
  0.715  40.1957
  0.714  40.5957
  0.713  40.9957
  0.712  40.8957
  0.711  41.0957
  0.710  40.9957
  0.709  40.6957
  0.708  40.3957
  0.707  40.6957
  0.706  40.4957
  0.705  40.3957
  0.704  40.4957
  0.703  40.0957
  0.702  40.1957
  0.701  40.4957
  0.700  40.6957
  0.699  40.4957
  0.698  40.1957
  0.697  39.9957
  0.696  40.0957
  0.695  40.1957
  0.694  40.1957
  0.693  39.9957
  0.692  39.9957
  0.691  40.1957
  0.690  40.3957
  0.689  40.4957
  0.688  40.5957
  0.687  40.8957
  0.686  40.9957
  0.685  40.8957
  0.684  40.6957
  0.683  40.3957
  0.682  39.8957
  0.681  39.7957
  0.680  39.8957
  0.679  40.0957
  0.678  40.1957
  0.677  40.4957
  0.676  40.0957
  0.675  40.1957
  0.674  40.4957
  0.673  40.0957
  0.672  40.0957
  0.671  40.3957
  0.670  40.1957
  0.669  40.5957
  0.668  40.8957
  0.667  40.9957
  0.666  40.6957
  0.665  40.6957
  0.664  40.4957
  0.663  40.3957
  0.662  39.9957
  0.661  39.9957
  0.660  40.1957
  0.659  40.4957
  0.658  40.5957
  0.657  40.4957
  0.656  40.0957
  0.655  40.1957
  0.654  40.0957
  0.653  40.0957
  0.652  40.3957
  0.651  40.3957
  0.650  39.9957
  0.649  39.7957
  0.648  39.7957
  0.647  39.7957
  0.646  39.8957
  0.645  40.3957
  0.644  40.3957
  0.643  40.3957
  0.642  40.5957
  0.641  40.4957
  0.640  40.1957
  0.639  40.3957
  0.638  40.1957
  0.637  40.5957
  0.636  40.1957
  0.635  39.8957
  0.634  39.9957
  0.633  39.9957
  0.632  39.7957
  0.631  39.8957
  0.630  40.0957
  0.629  39.8957
  0.628  39.9957
  0.627  40.0957
  0.626  40.0957
  0.625  40.1957
  0.624  39.9957
  0.623  39.9957
  0.622  40.3957
  0.621  40.4957
  0.620  40.3957
  0.619  39.9957
  0.618  39.9957
  0.617  40.1957
  0.616  39.9957
  0.615  40.1957
  0.614  40.0957
  0.613  39.8957
  0.612  39.8957
  0.611  39.8957
  0.610  39.8957
  0.609  39.8957
  0.608  39.7957
  0.607  39.5957
  0.606  39.5957
  0.605  39.4957
  0.604  39.5957
  0.603  39.5957
  0.602  39.8957
  0.601  40.0957
  0.600  39.8957
  0.599  39.8957
  0.598  39.8957
  0.597  39.3957
  0.596  39.8957
  0.595  39.8957
  0.594  39.9957
  0.593  39.9957
  0.592  39.7957
  0.591  39.2957
  0.590  39.4957
  0.589  39.3957
  0.588  39.4957
  0.587  39.5957
  0.586  39.4957
  0.585  39.4957
  0.584  39.3957
  0.583  39.5957
  0.582  39.5957
  0.581  39.4957
  0.580  39.4957
  0.579  39.5957
  0.578  39.5957
  0.577  39.5957
  0.576  39.7957
  0.575  39.4957
  0.574  39.2957
  0.573  39.5957
  0.572  39.5957
  0.571  39.5957
  0.570  39.8957
  0.569  39.4957
  0.568  39.4957
  0.567  39.4957
  0.566  39.2957
  0.565  39.3957
  0.564  39.2957
  0.563  39.4957
  0.562  39.4957
  0.561  39.4957
  0.560  39.2957
  0.559  39.2957
  0.558  39.2957
  0.557  39.2957
  0.556  39.1957
  0.555  38.9957
  0.554  38.7957
  0.553  38.9957
  0.552  39.2957
  0.551  39.3957
  0.550  39.1957
  0.549  39.1957
  0.548  38.6957
  0.547  38.9957
  0.546  38.7957
  0.545  38.8957
  0.544  38.9957
  0.543  38.4957
  0.542  38.7957
  0.541  38.6957
  0.540  38.8957
  0.539  38.3957
  0.538  38.2957
  0.537  38.1957
  0.536  38.4957
  0.535  38.2957
  0.534  38.1957
  0.533  38.1957
  0.532  38.2957
  0.531  38.1957
  0.530  38.0957
  0.529  38.1957
  0.528  38.1957
  0.527  37.8957
  0.526  37.6957
  0.525  37.8957
  0.524  37.8957
  0.523  38.1957
  0.522  38.0957
  0.521  37.5957
  0.520  37.2957
  0.519  37.2957
  0.518  37.5957
  0.517  37.0957
  0.516  36.6957
  0.515  37.0957
  0.514  37.1957
  0.513  37.3957
  0.512  37.3957
  0.511  37.1957
  0.510  36.9957
  0.509  36.7957
  0.508  36.7957
  0.507  36.7957
  0.506  36.7957
  0.505  36.5957
  0.504  36.4957
  0.503  36.5957
  0.502  36.2957
  0.501  36.4957
  0.500  36.1957
  0.499  35.6957
  0.498  35.5957
  0.497  35.8957
  0.496  35.8957
  0.495  35.8957
  0.494  35.8957
  0.493  36.0957
  0.492  35.8957
  0.491  35.5957
  0.490  35.3957
  0.489  34.9957
  0.488  35.0957
  0.487  35.1957
  0.486  35.1957
  0.485  35.1957
  0.484  34.9957
  0.483  34.7957
  0.482  34.5957
  0.481  34.4957
  0.480  34.7957
  0.479  34.3957
  0.478  34.5957
  0.477  34.3957
  0.476  34.3957
  0.475  34.3957
  0.474  34.4957
  0.473  34.2957
  0.472  33.9957
  0.471  34.0957
  0.470  33.7957
  0.469  33.3957
  0.468  33.3957
  0.467  33.4957
  0.466  33.7957
  0.465  33.6957
  0.464  34.3957
  0.463  34.2957
  0.462  33.9957
  0.461  33.6957
  0.460  33.4957
  0.459  33.6957
  0.458  33.3957
  0.457  32.9957
  0.456  32.5957
  0.455  32.5957
  0.454  32.5957
  0.453  32.7957
  0.452  32.5957
  0.451  32.2957
  0.450  31.7957
  0.449  31.7957
  0.448  31.7957
  0.447  31.7957
  0.446  31.8957
  0.445  31.8957
  0.444  31.6957
  0.443  32.0957
  0.442  31.4957
  0.441  31.2957
  0.440  31.2957
  0.439  30.7957
  0.438  30.7957
  0.437  30.9957
  0.436  30.7957
  0.435  30.5957
  0.434  30.6957
  0.433  30.5957
  0.432  30.5957
  0.431  30.0957
  0.430  29.6957
  0.429  30.3957
  0.428  30.1957
  0.427  30.0957
  0.426  29.9957
  0.425  29.5957
  0.424  29.4957
  0.423  29.3957
  0.422  29.5957
  0.421  29.2957
  0.420  29.3957
  0.419  29.0957
  0.418  28.9957
  0.417  28.8957
  0.416  28.8957
  0.415  28.8957
  0.414  28.7957
  0.413  28.7957
  0.412  28.3957
  0.411  28.2957
  0.410  28.1957
  0.409  28.1957
  0.408  27.9957
  0.407  28.1957
  0.406  27.8957
  0.405  27.6957
