Name: Basalt
Type: Rock
Class: Igneous
Subclass: Mafic
Particle Size: Whole rock chips
Sample No.: Me16b
Owner: Lawrence Rowan, USGS Reston
Wavelength range: 0.40 - 14.05 um
Origin: El Hammah, Middle East

Description: Basalt, fresh surface





Measurement: Directional Hemispherical Reflectance
First Column: X
Second Column: Y
X Units: Wavelength (micrometers)
Y Units: Reflectance (percent)
First X Value: 14.05105
Last X Value: 0.40000
Number of X Values: 2231
Additional Information: me16ba.txt

 14.051   3.9449
 14.013   3.6977
 13.975   3.7080
 13.938   3.5020
 13.900   3.6874
 13.863   3.7904
 13.826   3.6977
 13.790   3.6359
 13.753   3.8522
 13.717   3.6874
 13.680   3.7080
 13.644   3.6977
 13.609   3.7698
 13.573   3.6977
 13.538   3.8007
 13.502   3.7492
 13.467   3.7492
 13.432   3.7080
 13.398   3.7801
 13.363   3.6668
 13.329   3.6668
 13.295   3.6359
 13.261   3.7492
 13.227   3.7286
 13.193   3.7595
 13.160   3.6977
 13.126   3.7389
 13.093   3.6874
 13.060   3.8007
 13.027   3.7801
 12.995   3.8316
 12.962   3.8419
 12.930   3.9140
 12.898   3.8007
 12.866   3.8419
 12.834   3.8728
 12.802   4.0376
 12.771   3.9964
 12.739   3.9346
 12.708   3.8934
 12.677   3.9861
 12.646   3.9861
 12.616   4.0685
 12.585   4.0582
 12.554   4.0376
 12.524   4.0170
 12.494   4.1509
 12.464   4.1509
 12.434   4.2848
 12.404   4.3466
 12.375   4.4599
 12.345   4.4393
 12.316   4.5423
 12.287   4.6659
 12.258   4.8307
 12.229   4.9131
 12.200   5.0882
 12.171   5.1706
 12.143   5.3045
 12.115   5.3045
 12.086   5.3148
 12.058   5.3560
 12.030   5.5414
 12.002   5.6135
 11.975   5.8195
 11.947   5.9019
 11.920   5.9843
 11.892   5.9946
 11.865   5.9843
 11.838   5.9019
 11.811   6.0873
 11.784   6.2315
 11.757   6.3551
 11.731   6.4581
 11.704   6.6641
 11.678   6.7465
 11.652   6.9525
 11.626   7.0452
 11.600   7.1997
 11.574   7.2924
 11.548   7.4366
 11.522   7.5293
 11.497   7.7971
 11.471   7.9619
 11.446   8.1370
 11.421   8.2606
 11.396   8.4769
 11.371   8.6211
 11.346   8.9404
 11.321   9.0640
 11.297   9.1361
 11.272   9.1052
 11.248   9.1979
 11.223   9.2082
 11.199   9.3524
 11.175   9.4348
 11.151   9.5996
 11.127   9.7438
 11.103   9.8983
 11.079   9.9292
 11.056  10.0322
 11.032  10.0322
 11.009  10.1661
 10.985  10.3309
 10.962  10.4854
 10.939  10.5369
 10.916  10.6605
 10.893  10.6708
 10.870  10.7635
 10.848  10.8562
 10.825  10.9592
 10.802  10.9489
 10.780  11.0416
 10.758  11.0931
 10.735  11.1961
 10.713  11.1137
 10.691  11.1343
 10.669  11.1446
 10.647  11.1343
 10.625  11.2167
 10.604  11.3815
 10.582  11.3712
 10.560  11.3506
 10.539  11.2270
 10.518  11.1549
 10.496  11.1137
 10.475  11.1137
 10.454  11.0828
 10.433  11.2373
 10.412  11.3918
 10.391  11.4948
 10.370  11.5463
 10.350  11.6390
 10.329  11.6802
 10.309  11.7626
 10.288  11.8553
 10.268  12.0304
 10.247  12.0613
 10.227  12.1540
 10.207  12.1437
 10.187  12.0304
 10.167  11.9377
 10.147  12.0407
 10.127  12.0510
 10.108  12.0304
 10.088  12.0510
 10.068  12.1334
 10.049  12.2467
 10.029  12.4424
 10.010  12.4733
  9.991  12.5557
  9.972  12.6175
  9.952  12.7617
  9.933  12.8235
  9.914  12.8544
  9.895  12.8956
  9.877  13.0707
  9.858  13.1531
  9.839  13.1016
  9.821  12.9883
  9.802  13.1016
  9.783  13.1531
  9.765  13.1428
  9.747  13.1325
  9.728  13.1943
  9.710  13.1428
  9.692  13.1531
  9.674  13.1428
  9.656  13.1531
  9.638  13.1016
  9.620  13.1840
  9.602  13.1222
  9.585  13.0295
  9.567  12.8441
  9.549  12.7514
  9.532  12.6999
  9.514  12.7102
  9.497  12.5454
  9.479  12.3188
  9.462  12.0819
  9.445  12.1025
  9.428  12.1025
  9.411  11.9377
  9.394  11.6184
  9.377  11.3815
  9.360  11.1652
  9.343  11.0004
  9.326  10.8356
  9.309  10.6914
  9.293  10.4236
  9.276  10.3206
  9.259  10.2176
  9.243  10.0425
  9.226   9.8880
  9.210   9.8468
  9.194   9.7438
  9.178   9.7438
  9.161   9.8056
  9.145   9.8571
  9.129   9.8880
  9.113   9.9807
  9.097  10.0322
  9.081  10.1146
  9.065  10.0219
  9.049  10.0528
  9.034  10.0631
  9.018  10.0013
  9.002   9.8777
  8.987   9.8674
  8.971   9.7541
  8.956   9.6408
  8.940   9.5481
  8.925   9.5481
  8.909   9.5069
  8.894   9.4966
  8.879   9.3833
  8.864   9.2494
  8.849   9.0022
  8.834   8.8992
  8.819   8.7962
  8.804   8.7653
  8.789   8.6417
  8.774   8.6417
  8.759   8.5902
  8.744   8.4769
  8.730   8.3121
  8.715   8.3224
  8.700   8.2812
  8.686   8.2194
  8.671   8.0752
  8.657   8.0443
  8.642   7.9413
  8.628   7.9104
  8.614   7.8280
  8.599   7.7456
  8.585   7.5911
  8.571   7.5602
  8.557   7.4675
  8.543   7.3542
  8.529   7.3336
  8.515   7.2821
  8.501   7.1585
  8.487   7.2409
  8.473   7.2100
  8.459   7.1585
  8.445   7.0040
  8.431   6.8701
  8.418   6.8701
  8.404   6.8804
  8.391   6.7671
  8.377   6.6538
  8.363   6.5096
  8.350   6.4169
  8.337   6.3345
  8.323   6.2727
  8.310   6.0358
  8.297   5.8607
  8.283   5.6959
  8.270   5.5517
  8.257   5.3045
  8.244   5.0573
  8.231   4.8719
  8.218   4.7380
  8.205   4.5217
  8.192   4.4187
  8.179   4.2745
  8.166   4.2127
  8.153   4.0994
  8.140   4.0376
  8.128   3.8316
  8.115   3.7492
  8.102   3.7801
  8.090   3.7801
  8.077   3.7080
  8.064   3.6668
  8.052   3.6256
  8.039   3.6359
  8.027   3.6050
  8.015   3.5844
  8.002   3.4917
  7.990   3.3990
  7.978   3.3372
  7.965   3.3990
  7.953   3.4402
  7.941   3.4711
  7.929   3.4814
  7.917   3.5226
  7.905   3.5226
  7.893   3.5947
  7.881   3.5844
  7.869   3.5638
  7.857   3.5020
  7.845   3.5329
  7.833   3.5226
  7.821   3.5020
  7.809   3.5123
  7.798   3.5947
  7.786   3.6153
  7.774   3.6050
  7.763   3.5535
  7.751   3.6668
  7.739   3.6977
  7.728   3.6874
  7.716   3.6668
  7.705   3.6153
  7.694   3.6153
  7.682   3.7286
  7.671   3.7492
  7.659   3.6771
  7.648   3.6256
  7.637   3.6462
  7.626   3.6771
  7.614   3.7492
  7.603   3.7286
  7.592   3.7492
  7.581   3.7389
  7.570   3.7698
  7.559   3.7389
  7.548   3.7492
  7.537   3.7389
  7.526   3.7904
  7.515   3.7698
  7.504   3.7801
  7.493   3.7698
  7.483   3.7904
  7.472   3.8316
  7.461   3.8934
  7.450   3.9243
  7.440   3.9346
  7.429   3.9140
  7.418   3.9140
  7.408   3.8934
  7.397   3.8625
  7.387   3.8419
  7.376   3.9243
  7.366   3.9037
  7.355   3.8934
  7.345   3.9243
  7.334   3.9758
  7.324   3.9964
  7.314   4.1097
  7.303   4.1303
  7.293   4.0582
  7.283   3.9758
  7.273   3.9964
  7.263   3.9758
  7.252   3.9655
  7.242   4.0170
  7.232   4.0376
  7.222   3.9758
  7.212   4.0273
  7.202   4.0273
  7.192   4.0685
  7.182   4.0891
  7.172   4.1509
  7.162   4.1509
  7.152   4.1303
  7.143   4.1200
  7.133   4.1921
  7.123   4.1509
  7.113   4.1303
  7.103   4.1200
  7.094   4.2024
  7.084   4.2539
  7.074   4.1921
  7.065   4.1612
  7.055   4.1818
  7.046   4.1509
  7.036   4.2024
  7.026   4.2024
  7.017   4.2436
  7.007   4.2951
  6.998   4.2539
  6.989   4.1612
  6.979   4.2539
  6.970   4.2848
  6.960   4.2848
  6.951   4.2745
  6.942   4.2539
  6.932   4.2127
  6.923   4.2436
  6.914   4.3157
  6.905   4.3672
  6.896   4.3054
  6.886   4.3260
  6.877   4.3466
  6.868   4.2745
  6.859   4.1818
  6.850   4.2642
  6.841   4.3363
  6.832   4.3569
  6.823   4.3157
  6.814   4.2951
  6.805   4.2848
  6.796   4.2951
  6.787   4.2642
  6.778   4.2436
  6.770   4.2539
  6.761   4.3363
  6.752   4.3775
  6.743   4.4290
  6.734   4.3878
  6.726   4.3054
  6.717   4.2436
  6.708   4.2642
  6.700   4.2436
  6.691   4.2539
  6.682   4.2951
  6.674   4.3775
  6.665   4.3569
  6.657   4.3672
  6.648   4.3569
  6.640   4.3466
  6.631   4.3054
  6.623   4.3363
  6.614   4.3672
  6.606   4.4290
  6.597   4.4084
  6.589   4.3569
  6.581   4.3466
  6.572   4.4084
  6.564   4.4187
  6.556   4.3672
  6.547   4.3054
  6.539   4.3054
  6.531   4.3157
  6.523   4.3363
  6.514   4.3363
  6.506   4.3466
  6.498   4.3775
  6.490   4.3466
  6.482   4.2745
  6.474   4.3260
  6.466   4.3260
  6.458   4.2951
  6.450   4.2848
  6.442   4.2642
  6.434   4.2539
  6.426   4.2642
  6.418   4.2024
  6.410   4.1818
  6.402   4.1406
  6.394   4.1612
  6.386   4.1612
  6.378   4.1406
  6.370   4.0994
  6.363   4.0788
  6.355   4.0891
  6.347   4.1715
  6.339   4.1097
  6.332   4.0170
  6.324   3.9655
  6.316   4.0067
  6.308   4.0376
  6.301   4.0376
  6.293   4.0067
  6.286   3.9552
  6.278   3.9758
  6.270   4.0170
  6.263   3.9655
  6.255   3.9758
  6.248   3.9552
  6.240   3.9346
  6.233   3.9552
  6.225   3.9655
  6.218   3.9140
  6.210   3.8934
  6.203   3.8522
  6.195   3.8934
  6.188   3.9346
  6.181   3.9140
  6.173   3.8213
  6.166   3.7904
  6.159   3.7904
  6.151   3.7698
  6.144   3.7595
  6.137   3.7595
  6.130   3.7801
  6.122   3.7595
  6.115   3.6874
  6.108   3.6874
  6.101   3.6874
  6.094   3.7183
  6.086   3.6771
  6.079   3.6668
  6.072   3.6771
  6.065   3.7389
  6.058   3.7286
  6.051   3.6771
  6.044   3.6153
  6.037   3.6462
  6.030   3.7080
  6.023   3.7080
  6.016   3.6977
  6.009   3.7389
  6.002   3.7492
  5.995   3.7595
  5.988   3.7492
  5.981   3.7904
  5.974   3.8110
  5.967   3.8728
  5.960   3.9140
  5.954   3.9243
  5.947   3.9346
  5.940   3.9861
  5.933   3.9861
  5.926   3.9861
  5.920   3.9964
  5.913   4.0376
  5.906   4.0376
  5.899   4.0685
  5.893   4.0788
  5.886   4.1097
  5.879   4.1303
  5.873   4.1818
  5.866   4.2436
  5.859   4.2436
  5.853   4.2127
  5.846   4.3054
  5.840   4.3569
  5.833   4.3672
  5.827   4.3672
  5.820   4.3466
  5.813   4.3054
  5.807   4.3363
  5.800   4.4187
  5.794   4.4290
  5.788   4.3775
  5.781   4.3981
  5.775   4.4187
  5.768   4.3672
  5.762   4.3672
  5.755   4.3878
  5.749   4.4393
  5.743   4.4496
  5.736   4.4290
  5.730   4.4599
  5.724   4.4187
  5.717   4.4084
  5.711   4.4599
  5.705   4.5217
  5.698   4.4908
  5.692   4.4702
  5.686   4.4908
  5.680   4.5423
  5.674   4.5320
  5.667   4.4599
  5.661   4.4084
  5.655   4.4599
  5.649   4.5217
  5.643   4.5526
  5.637   4.4908
  5.630   4.4702
  5.624   4.4805
  5.618   4.5011
  5.612   4.4805
  5.606   4.5217
  5.600   4.6041
  5.594   4.6350
  5.588   4.5938
  5.582   4.5732
  5.576   4.5732
  5.570   4.5423
  5.564   4.5217
  5.558   4.5629
  5.552   4.5835
  5.546   4.5938
  5.540   4.6350
  5.534   4.6556
  5.528   4.6659
  5.523   4.6556
  5.517   4.6350
  5.511   4.6659
  5.505   4.7071
  5.499   4.6968
  5.493   4.7071
  5.487   4.7174
  5.482   4.6968
  5.476   4.7483
  5.470   4.7792
  5.464   4.7483
  5.459   4.7380
  5.453   4.7483
  5.447   4.7483
  5.441   4.7895
  5.436   4.8513
  5.430   4.8616
  5.424   4.8307
  5.419   4.8101
  5.413   4.7998
  5.407   4.7895
  5.402   4.7792
  5.396   4.7998
  5.390   4.8513
  5.385   4.8616
  5.379   4.8513
  5.374   4.9131
  5.368   4.8719
  5.363   4.8513
  5.357   4.8925
  5.352   4.8925
  5.346   4.8925
  5.341   4.9234
  5.335   4.9234
  5.330   4.9440
  5.324   4.9543
  5.319   4.9131
  5.313   4.9234
  5.308   4.9440
  5.302   4.9131
  5.297   4.9646
  5.291   4.9543
  5.286   4.9646
  5.281   4.9749
  5.275   4.9543
  5.270   4.9337
  5.265   4.9646
  5.259   4.9852
  5.254   4.9852
  5.249   5.0367
  5.243   4.9955
  5.238   4.9543
  5.233   4.9955
  5.227   4.9955
  5.222   5.0470
  5.217   5.0573
  5.212   5.0470
  5.206   4.9955
  5.201   5.0058
  5.196   5.0367
  5.191   5.0367
  5.186   5.0264
  5.180   5.0367
  5.175   5.0367
  5.170   5.0470
  5.165   5.0985
  5.160   5.0882
  5.155   5.0470
  5.150   5.0882
  5.145   5.1088
  5.139   5.1088
  5.134   5.1088
  5.129   5.1088
  5.124   5.1191
  5.119   5.0779
  5.114   5.0367
  5.109   5.0470
  5.104   5.0573
  5.099   5.0882
  5.094   5.0470
  5.089   5.0264
  5.084   5.0985
  5.079   5.1706
  5.074   5.1500
  5.069   5.1294
  5.064   5.1294
  5.059   5.1397
  5.054   5.1397
  5.049   5.1500
  5.044   5.1088
  5.040   5.1397
  5.035   5.1191
  5.030   5.0882
  5.025   5.0985
  5.020   5.1294
  5.015   5.1088
  5.010   5.0882
  5.005   5.1088
  5.001   5.1294
  4.996   5.1294
  4.991   5.1603
  4.986   5.1294
  4.981   5.0676
  4.977   5.0985
  4.972   5.1809
  4.967   5.2118
  4.962   5.2633
  4.958   5.2530
  4.953   5.1706
  4.948   5.1294
  4.943   5.1809
  4.939   5.2736
  4.934   5.2839
  4.929   5.1809
  4.925   5.1603
  4.920   5.2015
  4.915   5.2427
  4.911   5.2427
  4.906   5.2427
  4.901   5.2221
  4.897   5.2118
  4.892   5.2530
  4.888   5.2530
  4.883   5.2427
  4.878   5.2942
  4.874   5.3045
  4.869   5.2633
  4.865   5.2324
  4.860   5.2736
  4.856   5.2427
  4.851   5.1500
  4.846   5.1500
  4.842   5.2427
  4.837   5.2942
  4.833   5.3045
  4.828   5.3560
  4.824   5.3251
  4.819   5.2427
  4.815   5.2324
  4.810   5.3045
  4.806   5.3354
  4.802   5.2633
  4.797   5.2427
  4.793   5.2736
  4.788   5.2942
  4.784   5.2427
  4.779   5.2015
  4.775   5.2736
  4.771   5.3457
  4.766   5.3251
  4.762   5.2633
  4.758   5.3148
  4.753   5.4075
  4.749   5.3663
  4.744   5.3045
  4.740   5.2839
  4.736   5.3148
  4.731   5.3560
  4.727   5.3560
  4.723   5.3251
  4.719   5.3148
  4.714   5.3148
  4.710   5.3560
  4.706   5.3663
  4.701   5.3457
  4.697   5.3663
  4.693   5.3663
  4.689   5.3354
  4.684   5.3045
  4.680   5.3148
  4.676   5.3251
  4.672   5.3663
  4.668   5.3869
  4.663   5.3354
  4.659   5.3560
  4.655   5.3972
  4.651   5.3972
  4.647   5.3972
  4.643   5.3766
  4.638   5.3251
  4.634   5.3148
  4.630   5.3663
  4.626   5.4281
  4.622   5.4178
  4.618   5.4281
  4.614   5.4075
  4.610   5.3972
  4.605   5.3972
  4.601   5.3972
  4.597   5.4590
  4.593   5.4693
  4.589   5.4487
  4.585   5.4590
  4.581   5.5105
  4.577   5.4590
  4.573   5.3560
  4.569   5.3354
  4.565   5.3766
  4.561   5.4178
  4.557   5.4693
  4.553   5.4075
  4.549   5.3869
  4.545   5.3972
  4.541   5.4281
  4.537   5.4899
  4.533   5.5208
  4.529   5.4384
  4.525   5.4281
  4.521   5.4693
  4.517   5.4796
  4.513   5.4487
  4.509   5.4693
  4.505   5.5002
  4.502   5.5208
  4.498   5.4899
  4.494   5.4590
  4.490   5.4384
  4.486   5.4384
  4.482   5.4487
  4.478   5.5002
  4.474   5.5105
  4.470   5.4487
  4.467   5.4075
  4.463   5.4384
  4.459   5.5105
  4.455   5.5723
  4.451   5.5311
  4.447   5.4796
  4.444   5.4590
  4.440   5.5002
  4.436   5.5002
  4.432   5.4487
  4.428   5.4590
  4.425   5.5414
  4.421   5.4899
  4.417   5.4281
  4.413   5.4384
  4.410   5.4693
  4.406   5.4693
  4.402   5.4796
  4.398   5.4693
  4.395   5.4590
  4.391   5.4590
  4.387   5.5311
  4.384   5.5929
  4.380   5.5002
  4.376   5.3972
  4.372   5.4384
  4.369   5.4796
  4.365   5.4693
  4.361   5.5002
  4.358   5.5517
  4.354   5.5105
  4.350   5.5208
  4.347   5.5414
  4.343   5.4796
  4.340   5.4384
  4.336   5.4281
  4.332   5.4693
  4.329   5.5002
  4.325   5.5002
  4.321   5.5208
  4.318   5.4899
  4.314   5.4693
  4.311   5.3869
  4.307   5.3457
  4.304   5.2736
  4.300   5.3354
  4.296   5.4281
  4.293   5.5208
  4.289   5.5311
  4.286   5.4487
  4.282   5.4075
  4.279   5.3972
  4.275   5.3869
  4.272   5.5208
  4.268   5.5208
  4.265   5.5002
  4.261   5.4796
  4.258   5.4178
  4.254   5.3972
  4.251   5.4487
  4.247   5.4384
  4.244   5.4178
  4.240   5.4178
  4.237   5.3869
  4.233   5.3560
  4.230   5.4178
  4.226   5.4693
  4.223   5.4487
  4.219   5.3972
  4.216   5.4590
  4.213   5.4487
  4.209   5.4075
  4.206   5.4590
  4.202   5.4693
  4.199   5.4384
  4.196   5.4693
  4.192   5.5208
  4.189   5.5208
  4.185   5.4178
  4.182   5.3560
  4.179   5.4075
  4.175   5.4899
  4.172   5.4796
  4.169   5.4487
  4.165   5.3972
  4.162   5.4075
  4.159   5.4899
  4.155   5.4487
  4.152   5.4487
  4.149   5.4487
  4.145   5.3972
  4.142   5.4487
  4.139   5.4899
  4.135   5.4693
  4.132   5.4178
  4.129   5.4590
  4.126   5.5002
  4.122   5.4178
  4.119   5.3354
  4.116   5.3869
  4.112   5.4281
  4.109   5.4590
  4.106   5.3972
  4.103   5.3663
  4.099   5.3972
  4.096   5.4075
  4.093   5.3663
  4.090   5.3663
  4.086   5.3663
  4.083   5.4590
  4.080   5.5414
  4.077   5.5620
  4.074   5.4796
  4.070   5.4384
  4.067   5.3972
  4.064   5.3766
  4.061   5.4075
  4.058   5.4590
  4.055   5.4487
  4.051   5.4281
  4.048   5.4075
  4.045   5.3354
  4.042   5.3045
  4.039   5.4590
  4.036   5.4384
  4.032   5.3251
  4.029   5.4178
  4.026   5.4796
  4.023   5.3663
  4.020   5.2633
  4.017   5.2015
  4.014   5.3148
  4.011   5.4075
  4.008   5.4075
  4.004   5.3457
  4.001   5.2530
  3.998   5.2221
  3.995   5.3251
  3.992   5.3457
  3.989   5.2839
  3.986   5.2633
  3.983   5.2839
  3.980   5.2221
  3.977   5.1088
  3.974   5.1706
  3.971   5.3663
  3.968   5.3663
  3.965   5.3148
  3.962   5.2942
  3.959   5.2427
  3.956   5.2221
  3.953   5.1603
  3.950   5.2015
  3.947   5.3354
  3.944   5.3148
  3.941   5.2839
  3.938   5.3354
  3.935   5.3354
  3.932   5.3560
  3.929   5.4384
  3.926   5.3766
  3.923   5.3251
  3.920   5.3251
  3.917   5.2839
  3.914   5.2633
  3.911   5.3148
  3.908   5.2221
  3.905   5.1500
  3.902   5.2530
  3.899   5.4487
  3.896   5.4178
  3.893   5.3148
  3.890   5.3251
  3.887   5.2942
  3.884   5.1809
  3.882   5.1500
  3.879   5.1912
  3.876   5.3148
  3.873   5.2839
  3.870   5.2633
  3.867   5.3560
  3.864   5.3045
  3.861   5.3045
  3.858   5.3354
  3.856   5.3148
  3.853   5.2736
  3.850   5.1500
  3.847   5.1603
  3.844   5.2118
  3.841   5.2736
  3.838   5.2736
  3.836   5.2324
  3.833   5.2942
  3.830   5.3560
  3.827   5.2942
  3.824   5.2633
  3.822   5.2427
  3.819   5.2324
  3.816   5.2736
  3.813   5.3148
  3.810   5.3045
  3.807   5.3354
  3.805   5.2942
  3.802   5.2839
  3.799   5.3148
  3.796   5.3663
  3.794   5.3457
  3.791   5.2530
  3.788   5.2530
  3.785   5.2942
  3.782   5.3148
  3.780   5.3148
  3.777   5.2118
  3.774   5.2015
  3.771   5.2530
  3.769   5.2530
  3.766   5.3251
  3.763   5.3560
  3.761   5.2530
  3.758   5.2427
  3.755   5.2633
  3.752   5.2633
  3.750   5.2530
  3.747   5.3354
  3.744   5.3045
  3.742   5.2530
  3.739   5.2324
  3.736   5.2118
  3.733   5.2221
  3.731   5.3457
  3.728   5.3354
  3.725   5.3148
  3.723   5.2736
  3.720   5.2839
  3.717   5.3251
  3.715   5.3560
  3.712   5.2839
  3.709   5.2530
  3.707   5.2118
  3.704   5.2839
  3.702   5.3251
  3.699   5.2839
  3.696   5.2839
  3.694   5.2942
  3.691   5.2736
  3.688   5.3045
  3.686   5.2633
  3.683   5.1809
  3.680   5.2633
  3.678   5.4178
  3.675   5.3663
  3.673   5.3560
  3.670   5.3766
  3.667   5.3457
  3.665   5.2942
  3.662   5.2427
  3.660   5.1706
  3.657   5.1088
  3.655   5.0985
  3.652   5.2015
  3.649   5.2633
  3.647   5.2839
  3.644   5.3251
  3.642   5.2427
  3.639   5.1809
  3.637   5.3251
  3.634   5.3354
  3.632   5.2633
  3.629   5.1500
  3.626   5.1294
  3.624   5.2427
  3.621   5.2221
  3.619   5.1500
  3.616   5.2118
  3.614   5.2015
  3.611   5.2221
  3.609   5.2633
  3.606   5.2839
  3.604   5.2118
  3.601   5.1706
  3.599   5.1809
  3.596   5.1912
  3.594   5.2221
  3.591   5.3766
  3.589   5.3972
  3.586   5.3045
  3.584   5.1397
  3.581   5.0985
  3.579   5.1603
  3.576   5.1809
  3.574   5.2324
  3.571   5.2427
  3.569   5.1912
  3.567   5.1500
  3.564   5.1603
  3.562   5.2427
  3.559   5.2839
  3.557   5.2530
  3.554   5.2736
  3.552   5.2736
  3.549   5.2015
  3.547   5.1912
  3.545   5.0985
  3.542   5.0882
  3.540   5.1397
  3.537   5.1500
  3.535   5.1500
  3.533   5.1809
  3.530   5.0470
  3.528   5.0985
  3.525   5.1706
  3.523   5.1397
  3.521   5.0264
  3.518   4.9646
  3.516   4.9955
  3.513   5.0367
  3.511   4.9543
  3.509   4.9440
  3.506   4.9028
  3.504   4.8719
  3.502   4.8204
  3.499   4.8719
  3.497   4.9337
  3.494   4.9955
  3.492   5.0058
  3.490   4.9852
  3.487   5.0264
  3.485   5.0161
  3.483   4.8719
  3.480   4.9234
  3.478   5.0161
  3.476   4.9955
  3.473   4.9543
  3.471   5.0264
  3.469   5.0264
  3.466   4.9440
  3.464   4.9131
  3.462   4.9646
  3.460   4.9440
  3.457   4.9955
  3.455   4.9955
  3.453   4.9646
  3.450   4.8822
  3.448   4.9852
  3.446   5.0470
  3.443   5.0264
  3.441   5.0264
  3.439   5.0573
  3.437   4.9852
  3.434   4.9440
  3.432   4.9234
  3.430   4.9749
  3.428   4.9337
  3.425   4.7895
  3.423   4.7380
  3.421   4.8101
  3.418   4.8204
  3.416   4.7895
  3.414   4.7174
  3.412   4.8410
  3.409   4.9234
  3.407   4.8719
  3.405   4.6762
  3.403   4.7586
  3.401   4.8925
  3.398   4.8513
  3.396   4.7895
  3.394   4.8822
  3.392   4.8616
  3.389   4.8101
  3.387   4.7071
  3.385   4.8101
  3.383   4.8822
  3.381   4.8513
  3.378   4.8719
  3.376   4.9440
  3.374   4.9440
  3.372   4.8101
  3.370   4.7174
  3.367   4.7277
  3.365   4.7380
  3.363   4.8616
  3.361   4.9440
  3.359   4.9646
  3.357   4.9440
  3.354   4.8616
  3.352   4.7071
  3.350   4.7586
  3.348   4.8204
  3.346   4.7998
  3.344   4.7689
  3.341   4.7689
  3.339   4.7689
  3.337   4.9234
  3.335   4.9646
  3.333   4.9440
  3.331   4.8616
  3.329   4.8204
  3.326   4.7895
  3.324   4.7792
  3.322   4.7483
  3.320   4.8204
  3.318   4.8616
  3.316   4.9749
  3.314   4.9440
  3.312   4.9131
  3.309   4.8513
  3.307   4.8513
  3.305   4.7380
  3.303   4.7689
  3.301   4.7586
  3.299   4.7174
  3.297   4.7277
  3.295   4.7586
  3.293   4.8101
  3.291   4.8719
  3.288   4.7998
  3.286   4.8513
  3.284   4.8410
  3.282   4.7586
  3.280   4.7380
  3.278   4.7689
  3.276   4.7277
  3.274   4.7483
  3.272   4.6865
  3.270   4.7071
  3.268   4.6762
  3.266   4.6762
  3.264   4.7792
  3.262   4.8719
  3.259   4.8410
  3.257   4.7998
  3.255   4.7277
  3.253   4.7277
  3.251   4.7689
  3.249   4.8307
  3.247   4.7586
  3.245   4.7792
  3.243   4.8101
  3.241   4.7895
  3.239   4.7174
  3.237   4.7277
  3.235   4.6865
  3.233   4.6762
  3.231   4.6453
  3.229   4.6659
  3.227   4.7483
  3.225   4.7380
  3.223   4.6453
  3.221   4.5320
  3.219   4.5217
  3.217   4.6144
  3.215   4.6350
  3.213   4.6247
  3.211   4.6968
  3.209   4.6247
  3.207   4.5835
  3.205   4.7174
  3.203   4.6865
  3.201   4.7071
  3.199   4.7380
  3.197   4.6247
  3.195   4.5114
  3.193   4.5114
  3.191   4.5114
  3.189   4.5526
  3.187   4.5835
  3.185   4.7483
  3.183   4.8307
  3.182   4.6968
  3.180   4.4496
  3.178   4.5217
  3.176   4.5114
  3.174   4.5114
  3.172   4.5629
  3.170   4.5320
  3.168   4.4290
  3.166   4.4290
  3.164   4.5114
  3.162   4.6556
  3.160   4.6659
  3.158   4.5011
  3.156   4.2951
  3.154   4.3569
  3.152   4.4805
  3.151   4.5320
  3.149   4.4805
  3.147   4.4805
  3.145   4.5423
  3.143   4.5114
  3.141   4.5526
  3.139   4.7174
  3.137   4.6762
  3.135   4.5732
  3.133   4.4805
  3.132   4.5835
  3.130   4.5835
  3.128   4.5114
  3.126   4.5320
  3.124   4.5217
  3.122   4.3157
  3.120   4.3569
  3.118   4.5320
  3.117   4.6247
  3.115   4.5526
  3.113   4.5320
  3.111   4.5732
  3.109   4.5526
  3.107   4.5217
  3.105   4.6556
  3.103   4.5011
  3.102   4.3672
  3.100   4.2951
  3.098   4.4187
  3.096   4.5217
  3.094   4.4393
  3.092   4.4496
  3.091   4.5423
  3.089   4.5629
  3.087   4.6659
  3.085   4.4908
  3.083   4.3672
  3.081   4.3878
  3.079   4.3981
  3.078   4.4393
  3.076   4.3157
  3.074   4.2230
  3.072   4.3054
  3.070   4.3878
  3.069   4.4187
  3.067   4.4599
  3.065   4.5629
  3.063   4.4084
  3.061   4.3672
  3.060   4.4290
  3.058   4.4187
  3.056   4.2848
  3.054   4.2642
  3.052   4.3054
  3.051   4.3878
  3.049   4.4496
  3.047   4.4393
  3.045   4.2848
  3.043   4.3775
  3.042   4.4084
  3.040   4.4187
  3.038   4.3466
  3.036   4.4908
  3.034   4.5217
  3.033   4.5217
  3.031   4.4496
  3.029   4.3981
  3.027   4.3363
  3.026   4.2848
  3.024   4.1818
  3.022   4.1818
  3.020   4.1818
  3.019   4.2436
  3.017   4.2745
  3.015   4.3878
  3.013   4.4187
  3.012   4.5011
  3.010   4.5217
  3.008   4.5011
  3.006   4.3981
  3.005   4.1921
  3.003   4.2127
  3.001   4.4084
  2.999   4.3672
  2.998   4.2539
  2.996   4.2642
  2.994   4.4187
  2.992   4.4599
  2.991   4.5629
  2.989   4.5526
  2.987   4.5217
  2.986   4.4393
  2.984   4.4599
  2.982   4.4702
  2.980   4.4599
  2.979   4.5320
  2.977   4.6659
  2.975   4.5217
  2.974   4.3157
  2.972   4.1921
  2.970   4.3775
  2.968   4.5938
  2.967   4.5011
  2.965   4.3363
  2.963   4.4805
  2.962   4.4084
  2.960   4.3672
  2.958   4.4496
  2.957   4.4599
  2.955   4.2539
  2.953   4.3672
  2.952   4.2745
  2.950   4.3466
  2.948   4.2848
  2.947   4.3054
  2.945   4.3260
  2.943   4.4496
  2.942   4.4599
  2.940   4.3981
  2.938   4.2745
  2.937   4.2127
  2.935   4.2230
  2.933   4.2848
  2.932   4.3466
  2.930   4.2951
  2.928   4.2848
  2.927   4.3878
  2.925   4.3569
  2.923   4.2539
  2.922   4.1818
  2.920   4.3569
  2.918   4.5732
  2.917   4.5114
  2.915   4.2951
  2.913   4.2848
  2.912   4.3878
  2.910   4.3981
  2.909   4.3878
  2.907   4.3981
  2.905   4.1818
  2.904   4.1818
  2.902   4.4496
  2.900   4.8204
  2.899   4.6247
  2.897   4.3878
  2.896   4.4290
  2.894   4.4908
  2.892   4.3775
  2.891   4.3260
  2.889   4.2848
  2.887   4.5114
  2.886   4.4599
  2.884   4.3672
  2.883   4.3054
  2.881   4.4496
  2.879   4.4187
  2.878   4.5423
  2.876   4.5938
  2.875   4.4805
  2.873   4.3775
  2.871   4.5114
  2.870   4.3878
  2.868   4.3260
  2.867   4.2745
  2.865   4.3054
  2.864   4.3157
  2.862   4.3260
  2.860   4.4496
  2.859   4.4805
  2.857   4.4599
  2.856   4.4702
  2.854   4.4496
  2.853   4.6144
  2.851   4.5423
  2.849   4.3363
  2.848   4.3157
  2.846   4.6247
  2.845   4.5526
  2.843   4.5526
  2.842   4.5526
  2.840   4.4393
  2.838   4.3672
  2.837   4.4702
  2.835   4.5835
  2.834   4.5217
  2.832   4.4084
  2.831   4.6041
  2.829   4.4496
  2.828   4.2745
  2.826   4.1612
  2.825   4.0994
  2.823   4.1715
  2.821   4.3157
  2.820   4.6453
  2.818   4.7689
  2.817   4.3981
  2.815   4.3672
  2.814   4.3157
  2.812   4.2127
  2.811   4.3157
  2.809   4.6453
  2.808   4.5011
  2.806   4.3775
  2.805   4.4496
  2.803   4.5114
  2.802   4.5629
  2.800   4.7277
  2.799   4.6762
  2.797   4.6659
  2.796   4.6968
  2.794   4.7277
  2.793   4.6041
  2.791   4.7380
  2.790   4.8101
  2.788   4.7792
  2.787   4.7174
  2.785   4.5835
  2.784   4.3981
  2.782   4.3878
  2.781   4.4496
  2.779   4.6453
  2.778   4.6041
  2.776   4.5629
  2.775   4.6247
  2.773   4.6659
  2.772   4.7380
  2.770   4.6453
  2.769   4.5217
  2.767   4.7895
  2.766   4.8410
  2.764   4.6968
  2.763   4.6659
  2.761   4.7792
  2.760   4.6865
  2.758   4.5835
  2.757   4.6762
  2.756   4.7998
  2.754   4.4702
  2.753   4.6968
  2.751   5.0058
  2.750   4.9337
  2.748   4.8719
  2.747   4.8616
  2.745   4.7586
  2.744   4.8513
  2.742   4.7895
  2.741   4.6968
  2.740   4.7277
  2.738   4.6453
  2.737   4.7895
  2.735   5.0264
  2.734   4.8616
  2.732   4.8101
  2.731   4.7689
  2.729   5.0573
  2.728   5.0882
  2.727   5.0470
  2.725   4.9955
  2.724   5.0985
  2.722   5.2839
  2.721   5.4796
  2.719   5.6032
  2.718   5.4178
  2.717   5.2015
  2.715   5.0264
  2.714   5.2839
  2.712   5.6341
  2.711   5.5929
  2.709   5.3663
  2.708   5.1397
  2.707   5.1706
  2.705   5.3457
  2.704   5.3663
  2.702   5.3148
  2.701   5.6547
  2.700   5.8813
  2.698   5.8813
  2.697   5.6753
  2.695   5.7268
  2.694   5.8504
  2.693   5.9225
  2.691   5.6135
  2.690   5.5105
  2.688   5.4487
  2.687   5.6959
  2.686   5.6856
  2.684   5.6547
  2.683   5.9225
  2.681   6.4375
  2.680   6.4066
  2.679   6.0667
  2.677   6.0667
  2.676   5.8504
  2.675   5.4899
  2.673   5.5620
  2.672   5.5723
  2.670   5.7886
  2.669   6.1079
  2.668   6.2315
  2.666   6.0770
  2.665   5.9225
  2.664   5.7886
  2.662   5.9843
  2.661   5.9431
  2.659   5.9431
  2.658   5.8710
  2.657   5.9843
  2.655   5.8813
  2.654   5.7268
  2.653   5.5826
  2.651   5.7474
  2.650   5.9534
  2.649   6.1079
  2.647   5.8813
  2.646   5.7474
  2.645   5.8092
  2.643   6.0049
  2.642   6.0873
  2.640   5.9843
  2.639   5.8504
  2.638   5.7577
  2.636   5.9431
  2.635   6.2727
  2.634   5.9122
  2.632   5.7577
  2.631   5.9946
  2.630   6.0667
  2.628   5.9122
  2.627   5.9431
  2.626   5.8401
  2.624   6.0564
  2.623   6.1903
  2.622   6.0152
  2.620   5.6753
  2.619   5.5723
  2.618   5.5929
  2.617   5.8195
  2.615   6.1388
  2.614   6.2830
  2.613   6.2212
  2.611   6.2212
  2.610   6.0461
  2.609   6.0667
  2.607   6.2521
  2.606   6.3036
  2.605   6.1388
  2.603   6.0461
  2.602   5.9843
  2.601   5.9122
  2.599   5.9843
  2.598   6.2933
  2.597   6.3345
  2.596   6.1388
  2.594   5.9843
  2.593   6.1697
  2.592   6.1903
  2.590   6.0255
  2.589   5.8298
  2.588   5.9431
  2.586   5.8813
  2.585   5.8916
  2.584   6.1903
  2.583   6.3963
  2.581   6.4478
  2.580   6.4066
  2.579   6.2006
  2.577   6.0976
  2.576   6.0152
  2.575   6.2521
  2.574   6.1800
  2.572   6.2109
  2.571   6.2212
  2.570   6.2727
  2.569   6.0976
  2.567   5.9740
  2.566   5.8813
  2.565   5.9431
  2.563   5.7268
  2.562   5.6547
  2.561   6.0667
  2.560   5.9637
  2.558   5.6650
  2.557   5.8298
  2.556   5.8916
  2.555   5.9843
  2.553   6.0564
  2.552   6.0049
  2.551   5.9122
  2.550   6.0873
  2.548   6.2830
  2.547   6.3139
  2.546   6.2109
  2.545   6.0564
  2.543   5.6135
  2.542   5.7989
  2.541   6.0255
  2.540   6.1594
  2.538   5.9637
  2.537   5.9431
  2.536   5.8710
  2.535   5.9534
  2.533   6.0461
  2.532   5.9122
  2.531   5.8813
  2.530   6.1491
  2.528   6.0667
  2.527   6.1594
  2.526   6.2418
  2.525   6.3242
  2.524   6.1594
  2.522   6.0564
  2.521   5.9946
  2.520   6.1903
  2.519   6.2521
  2.517   6.1903
  2.516   5.9946
  2.515   6.0049
  2.514   6.0564
  2.513   6.2109
  2.511   6.2727
  2.510   6.2109
  2.509   6.0564
  2.508   6.1903
  2.506   6.1491
  2.505   6.0564
  2.504   6.1285
  2.503   6.0873
  2.502   6.1388
  2.500   6.1697
  2.496   6.2220
  2.492   6.6940
  2.488   6.6384
  2.484   6.9255
  2.480   5.9005
  2.476   6.8936
  2.472   6.8104
  2.468   6.3016
  2.464   6.3326
  2.460   6.6680
  2.456   6.7199
  2.452   6.4782
  2.448   6.7354
  2.444   6.4145
  2.440   6.2546
  2.436   6.4863
  2.432   7.0094
  2.428   7.0279
  2.424   6.3428
  2.420   6.3004
  2.416   6.4997
  2.412   6.6857
  2.408   6.3477
  2.404   6.9457
  2.400   6.8795
  2.396   6.5093
  2.392   6.6458
  2.388   6.6534
  2.384   6.8045
  2.380   6.7263
  2.376   6.9602
  2.372   6.7525
  2.368   6.7941
  2.364   6.7983
  2.360   6.4184
  2.356   6.6648
  2.352   7.0966
  2.348   6.9932
  2.344   6.5115
  2.340   6.6787
  2.336   6.8368
  2.332   6.7045
  2.328   7.0825
  2.324   6.8884
  2.320   6.4357
  2.316   6.5878
  2.312   6.8808
  2.308   6.6534
  2.304   6.7639
  2.300   7.1777
  2.296   6.7586
  2.292   6.4660
  2.288   6.6321
  2.284   6.8713
  2.280   6.9405
  2.276   6.7935
  2.272   6.4927
  2.268   6.7993
  2.264   6.8254
  2.260   6.8594
  2.256   6.7931
  2.252   6.8433
  2.248   6.8169
  2.244   6.6598
  2.240   6.8949
  2.236   6.9183
  2.232   6.8318
  2.228   6.9606
  2.224   6.9075
  2.220   6.9894
  2.216   6.7849
  2.212   6.8102
  2.208   6.8758
  2.204   6.8646
  2.200   6.9904
  2.196   7.0109
  2.192   7.1168
  2.188   7.1558
  2.184   7.0100
  2.180   7.0127
  2.176   7.0936
  2.172   7.0671
  2.168   7.0543
  2.164   7.0498
  2.160   7.0695
  2.156   7.2651
  2.152   7.0939
  2.148   7.0416
  2.144   7.2296
  2.140   7.1592
  2.136   7.1480
  2.132   7.1547
  2.128   7.0178
  2.124   7.0845
  2.120   7.1118
  2.116   7.0183
  2.112   6.9997
  2.108   7.0704
  2.104   6.9899
  2.100   6.9753
  2.096   7.0107
  2.092   7.0741
  2.088   7.0546
  2.084   6.9798
  2.080   6.9991
  2.076   7.1156
  2.072   7.0586
  2.068   7.0380
  2.064   7.1302
  2.060   7.0997
  2.056   7.1334
  2.052   7.0894
  2.048   7.1096
  2.044   7.2005
  2.040   7.1974
  2.036   7.1707
  2.032   7.1891
  2.028   7.2268
  2.024   7.1556
  2.020   7.1464
  2.016   7.1756
  2.012   7.1885
  2.008   7.1928
  2.004   7.2113
  2.000   7.2417
  1.996   7.2090
  1.992   7.2237
  1.988   7.2806
  1.984   7.2920
  1.980   7.3315
  1.976   7.2944
  1.972   7.2704
  1.968   7.3103
  1.964   7.3577
  1.960   7.3352
  1.956   7.3319
  1.952   7.2953
  1.948   7.2781
  1.944   7.3874
  1.940   7.4448
  1.936   7.4261
  1.932   7.3771
  1.928   7.1820
  1.924   7.0608
  1.920   7.1453
  1.916   7.0879
  1.912   6.9927
  1.908   7.0451
  1.904   7.1034
  1.900   6.9887
  1.896   6.9191
  1.892   7.0082
  1.888   7.0835
  1.884   7.0439
  1.880   7.1382
  1.876   7.2676
  1.872   7.2562
  1.868   7.2189
  1.864   7.1777
  1.860   7.1289
  1.856   7.1619
  1.852   7.2285
  1.848   7.3046
  1.844   7.2868
  1.840   7.2350
  1.836   7.2634
  1.832   7.2284
  1.828   7.1817
  1.824   7.1872
  1.820   7.1815
  1.816   7.2162
  1.812   7.2355
  1.808   7.2484
  1.804   7.2604
  1.800   7.2684
  1.796   7.2532
  1.792   7.2801
  1.788   7.3340
  1.784   7.3984
  1.780   7.4200
  1.776   7.4256
  1.772   7.4225
  1.768   7.3850
  1.764   7.3861
  1.760   7.3581
  1.756   7.3535
  1.752   7.3584
  1.748   7.3462
  1.744   7.3544
  1.740   7.3705
  1.736   7.3986
  1.732   7.3868
  1.728   7.3847
  1.724   7.3759
  1.720   7.3627
  1.716   7.3532
  1.712   7.3608
  1.708   7.3638
  1.704   7.3558
  1.700   7.3849
  1.696   7.4078
  1.692   7.4351
  1.688   7.4626
  1.684   7.4460
  1.680   7.4607
  1.676   7.4419
  1.672   7.4147
  1.668   7.4297
  1.664   7.4196
  1.660   7.4059
  1.656   7.3917
  1.652   7.4022
  1.648   7.4129
  1.644   7.4188
  1.640   7.4159
  1.636   7.4278
  1.632   7.3987
  1.628   7.4028
  1.624   7.4128
  1.620   7.4181
  1.616   7.4376
  1.612   7.4218
  1.608   7.4058
  1.604   7.4080
  1.600   7.4055
  1.596   7.4021
  1.592   7.4028
  1.588   7.4394
  1.584   7.4509
  1.580   7.4302
  1.576   7.3793
  1.572   7.3867
  1.568   7.4401
  1.564   7.3797
  1.560   7.4331
  1.556   7.4367
  1.552   7.4071
  1.548   7.3925
  1.544   7.4065
  1.540   7.4395
  1.536   7.4338
  1.532   7.4113
  1.528   7.4255
  1.524   7.3875
  1.520   7.3992
  1.516   7.4025
  1.512   7.3818
  1.508   7.3954
  1.504   7.4228
  1.500   7.3819
  1.496   7.4365
  1.492   7.3771
  1.488   7.3762
  1.484   7.3945
  1.480   7.4384
  1.476   7.4224
  1.472   7.4240
  1.468   7.3727
  1.464   7.4117
  1.460   7.3906
  1.456   7.3815
  1.452   7.4485
  1.448   7.4621
  1.444   7.3693
  1.440   7.3458
  1.436   7.3255
  1.432   7.3968
  1.428   7.4104
  1.424   7.3779
  1.420   7.3644
  1.416   7.3492
  1.412   7.3585
  1.408   7.4356
  1.404   7.3921
  1.400   7.3448
  1.396   7.3718
  1.392   7.3858
  1.388   7.3655
  1.384   7.4780
  1.380   7.4184
  1.376   7.3098
  1.372   7.2761
  1.368   7.4100
  1.364   7.5265
  1.360   7.4684
  1.356   7.2803
  1.352   7.2183
  1.348   7.2567
  1.344   7.3317
  1.340   7.4181
  1.336   7.4515
  1.332   7.4206
  1.328   7.3243
  1.324   7.2538
  1.320   7.3082
  1.316   7.3254
  1.312   7.2908
  1.308   7.3162
  1.304   7.2777
  1.300   7.3371
  1.296   7.2580
  1.292   7.2896
  1.288   7.3593
  1.284   7.3222
  1.280   7.2934
  1.276   7.3454
  1.272   7.2984
  1.268   7.3183
  1.264   7.3025
  1.260   7.3828
  1.256   7.3090
  1.252   7.3084
  1.248   7.3174
  1.244   7.3070
  1.240   7.3292
  1.236   7.3053
  1.232   7.3105
  1.228   7.3650
  1.224   7.2893
  1.220   7.3330
  1.216   7.2790
  1.212   7.3249
  1.208   7.2975
  1.204   7.2786
  1.200   7.3230
  1.196   7.3282
  1.192   7.3480
  1.188   7.3242
  1.184   7.2765
  1.180   7.3572
  1.176   7.3398
  1.172   7.3221
  1.168   7.3750
  1.164   7.3558
  1.160   7.3433
  1.156   7.4015
  1.152   7.4076
  1.148   7.3587
  1.144   7.3364
  1.140   7.3347
  1.136   7.3596
  1.132   7.3349
  1.128   7.3595
  1.124   7.4022
  1.120   7.3881
  1.116   7.3338
  1.112   7.3288
  1.108   7.3345
  1.104   7.3897
  1.100   7.3286
  1.096   7.3414
  1.092   7.3879
  1.088   7.3566
  1.084   7.3250
  1.080   7.2844
  1.076   7.3698
  1.072   7.3666
  1.068   7.3362
  1.064   7.3623
  1.060   7.3418
  1.056   7.3440
  1.052   7.4075
  1.048   7.4287
  1.044   7.3785
  1.040   7.3735
  1.036   7.4155
  1.032   7.4549
  1.028   7.4535
  1.024   7.4650
  1.020   7.4682
  1.016   7.4989
  1.012   7.5019
  1.008   7.5187
  1.004   7.4997
  1.000   7.5706
  0.996   7.6060
  0.992   7.5506
  0.988   7.5647
  0.984   7.6051
  0.980   7.6232
  0.976   7.6539
  0.972   7.6994
  0.968   7.7575
  0.964   7.7949
  0.960   7.7776
  0.956   7.7666
  0.952   7.7951
  0.948   7.8141
  0.944   7.8516
  0.940   7.8887
  0.936   7.9160
  0.932   7.9218
  0.928   7.9672
  0.924   8.1050
  0.920   8.2273
  0.916   8.2466
  0.912   8.3116
  0.908   8.3391
  0.904   8.3855
  0.900   8.3356
  0.896   8.3414
  0.892   8.3764
  0.888   8.4985
  0.884   8.6214
  0.880   8.6831
  0.876   8.4788
  0.872   8.3228
  0.868   8.3634
  0.864   8.6529
  0.860   8.7813
  0.856   8.5766
  0.852   8.6006
  0.848   8.6216
  0.844   8.6620
  0.840   8.7074
  0.836   8.6408
  0.832   8.6622
  0.828   8.7042
  0.824   8.6934
  0.820   8.7411
  0.816   8.7002
  0.812   8.6909
  0.808   8.6915
  0.804   8.6673
  0.800   8.6804
  0.796   8.6963
  0.792   8.7042
  0.788   8.7034
  0.784   8.7016
  0.780   8.7293
  0.776   8.7212
  0.772   8.7460
  0.768   8.7700
  0.764   8.7716
  0.760   8.7615
  0.756   8.7709
  0.752   8.7869
  0.748   8.7942
  0.744   8.7900
  0.740   8.7896
  0.736   8.8015
  0.732   8.8210
  0.728   8.8264
  0.724   8.8438
  0.720   8.8246
  0.716   8.8236
  0.712   8.8346
  0.708   8.8235
  0.704   8.8303
  0.700   8.8339
  0.696   8.8331
  0.692   8.8670
  0.688   8.8830
  0.684   8.8758
  0.680   8.8819
  0.676   8.8899
  0.672   8.8901
  0.668   8.9110
  0.664   8.9074
  0.660   8.9047
  0.656   8.9038
  0.652   8.9114
  0.648   8.9175
  0.644   8.9204
  0.640   8.9346
  0.636   8.9382
  0.632   8.9569
  0.628   8.9686
  0.624   8.9704
  0.620   8.9696
  0.616   8.9810
  0.612   8.9969
  0.608   8.9964
  0.604   9.0069
  0.600   9.0157
  0.596   9.0333
  0.592   9.0376
  0.588   9.0372
  0.584   9.0424
  0.580   9.0550
  0.576   9.0688
  0.572   9.0867
  0.568   9.0906
  0.564   9.0870
  0.560   9.0953
  0.556   9.1113
  0.552   9.1256
  0.548   9.1243
  0.544   9.1320
  0.540   9.1441
  0.536   9.1605
  0.532   9.1730
  0.528   9.1746
  0.524   9.1969
  0.520   9.2154
  0.516   9.2276
  0.512   9.2317
  0.508   9.2428
  0.504   9.2498
  0.500   9.2439
  0.496   9.2306
  0.492   9.2093
  0.488   9.1729
  0.484   9.1458
  0.480   9.1512
  0.476   9.1749
  0.472   9.2052
  0.468   9.2173
  0.464   9.2234
  0.460   9.2277
  0.456   9.2218
  0.452   9.2092
  0.448   9.1972
  0.444   9.1890
  0.440   9.2053
  0.436   9.2248
  0.432   9.2163
  0.428   9.2058
  0.424   9.2015
  0.420   9.1905
  0.416   9.1676
  0.412   9.1669
  0.408   9.1515
  0.404   9.1159
  0.400   9.0626
