Name: Basalt
Type: Rock
Class: Igneous
Subclass: Mafic
Particle Size: Whole rock chips
Sample No.: Me64
Owner: Lawrence Rowan, USGS Reston
Wavelength range: 0.40 - 14.05 um
Origin: Tel Megadiur, Middle East

Description: Basalt, fresh surface





Measurement: Directional Hemispherical Reflectance
First Column: X
Second Column: Y
X Units: Wavelength (micrometers)
Y Units: Reflectance (percent)
First X Value: 14.05105
Last X Value: 0.40000
Number of X Values: 2231
Additional Information: me64a.txt

 14.051   2.2351
 14.013   2.0703
 13.975   2.2557
 13.938   2.2557
 13.900   2.3587
 13.863   2.2660
 13.826   2.2557
 13.790   2.2351
 13.753   2.3381
 13.717   2.2763
 13.680   2.2763
 13.644   2.1527
 13.609   2.2351
 13.573   2.2454
 13.538   2.3175
 13.502   2.2660
 13.467   2.3690
 13.432   2.4102
 13.398   2.4617
 13.363   2.4205
 13.329   2.4926
 13.295   2.4308
 13.261   2.4102
 13.227   2.4205
 13.193   2.4720
 13.160   2.3690
 13.126   2.3896
 13.093   2.2557
 13.060   2.3072
 13.027   2.3896
 12.995   2.4411
 12.962   2.3587
 12.930   2.3999
 12.898   2.4102
 12.866   2.4926
 12.834   2.4102
 12.802   2.4102
 12.771   2.4205
 12.739   2.4823
 12.708   2.4205
 12.677   2.4514
 12.646   2.4411
 12.616   2.4720
 12.585   2.3999
 12.554   2.4926
 12.524   2.5235
 12.494   2.5441
 12.464   2.4720
 12.434   2.6059
 12.404   2.7089
 12.375   2.7810
 12.345   2.7913
 12.316   2.8016
 12.287   2.7913
 12.258   2.9561
 12.229   3.0076
 12.200   2.9767
 12.171   2.9252
 12.143   3.0694
 12.115   3.1312
 12.086   3.2754
 12.058   3.2960
 12.030   3.3990
 12.002   3.3681
 11.975   3.3475
 11.947   3.3784
 11.920   3.4711
 11.892   3.4299
 11.865   3.3681
 11.838   3.2445
 11.811   3.3372
 11.784   3.4917
 11.757   3.6462
 11.731   3.5741
 11.704   3.5226
 11.678   3.5741
 11.652   3.7286
 11.626   3.7698
 11.600   3.8522
 11.574   3.8934
 11.548   4.1097
 11.522   4.2539
 11.497   4.3775
 11.471   4.4290
 11.446   4.5629
 11.421   4.6762
 11.396   4.7689
 11.371   4.8307
 11.346   4.9749
 11.321   4.9955
 11.297   5.1294
 11.272   5.2942
 11.248   5.3354
 11.223   5.1706
 11.199   5.1294
 11.175   5.0985
 11.151   5.2015
 11.127   5.1912
 11.103   5.2324
 11.079   5.2530
 11.056   5.2530
 11.032   5.2736
 11.009   5.3972
 10.985   5.3972
 10.962   5.4075
 10.939   5.4384
 10.916   5.4796
 10.893   5.4693
 10.870   5.6135
 10.848   5.6135
 10.825   5.5723
 10.802   5.5414
 10.780   5.5311
 10.758   5.4487
 10.735   5.4899
 10.713   5.4590
 10.691   5.4899
 10.669   5.4693
 10.647   5.4178
 10.625   5.2736
 10.604   5.2015
 10.582   5.2427
 10.560   5.3045
 10.539   5.2633
 10.518   5.3148
 10.496   5.2839
 10.475   5.2427
 10.454   5.2324
 10.433   5.3148
 10.412   5.2839
 10.391   5.2736
 10.370   5.2633
 10.350   5.2736
 10.329   5.1809
 10.309   5.2221
 10.288   5.2221
 10.268   5.2118
 10.247   5.1912
 10.227   5.2015
 10.207   5.1603
 10.187   5.1912
 10.167   5.1706
 10.147   5.1603
 10.127   5.1603
 10.108   5.3148
 10.088   5.3457
 10.068   5.3457
 10.049   5.3457
 10.029   5.4075
 10.010   5.3972
  9.991   5.4796
  9.972   5.5208
  9.952   5.5517
  9.933   5.5929
  9.914   5.6135
  9.895   5.5414
  9.877   5.6238
  9.858   5.6959
  9.839   5.7680
  9.821   5.7165
  9.802   5.6547
  9.783   5.6032
  9.765   5.6856
  9.747   5.6959
  9.728   5.6753
  9.710   5.6959
  9.692   5.7680
  9.674   5.7371
  9.656   5.6753
  9.638   5.6341
  9.620   5.7062
  9.602   5.6753
  9.585   5.5620
  9.567   5.4487
  9.549   5.4899
  9.532   5.4487
  9.514   5.3766
  9.497   5.3457
  9.479   5.3251
  9.462   5.2530
  9.445   5.1912
  9.428   5.0779
  9.411   5.1088
  9.394   5.0882
  9.377   5.0779
  9.360   4.9646
  9.343   4.8616
  9.326   4.6865
  9.309   4.6865
  9.293   4.7792
  9.276   4.8616
  9.259   4.7689
  9.243   4.7277
  9.226   4.6453
  9.210   4.6144
  9.194   4.5114
  9.178   4.5835
  9.161   4.6247
  9.145   4.6350
  9.129   4.5835
  9.113   4.6041
  9.097   4.6041
  9.081   4.6865
  9.065   4.6041
  9.049   4.5732
  9.034   4.5835
  9.018   4.6350
  9.002   4.6144
  8.987   4.6350
  8.971   4.6453
  8.956   4.6041
  8.940   4.5217
  8.925   4.6144
  8.909   4.5629
  8.894   4.4702
  8.879   4.3981
  8.864   4.4084
  8.849   4.3260
  8.834   4.3157
  8.819   4.2642
  8.804   4.2539
  8.789   4.1612
  8.774   4.1612
  8.759   4.0788
  8.744   4.1200
  8.730   4.0685
  8.715   3.9655
  8.700   3.9449
  8.686   3.9655
  8.671   3.9140
  8.657   3.9243
  8.642   3.9243
  8.628   3.8625
  8.614   3.7698
  8.599   3.7286
  8.585   3.6256
  8.571   3.5844
  8.557   3.5638
  8.543   3.5844
  8.529   3.5020
  8.515   3.4711
  8.501   3.4196
  8.487   3.4505
  8.473   3.3784
  8.459   3.2754
  8.445   3.2651
  8.431   3.2342
  8.418   3.1518
  8.404   3.1106
  8.391   3.0694
  8.377   3.0797
  8.363   3.0488
  8.350   3.0179
  8.337   2.8943
  8.323   2.7295
  8.310   2.5750
  8.297   2.5338
  8.283   2.4926
  8.270   2.4720
  8.257   2.2866
  8.244   2.1527
  8.231   2.0497
  8.218   1.9364
  8.205   1.8025
  8.192   1.7922
  8.179   1.7201
  8.166   1.5862
  8.153   1.4935
  8.140   1.5244
  8.128   1.4832
  8.115   1.4317
  8.102   1.3699
  8.090   1.4420
  8.077   1.4729
  8.064   1.4111
  8.052   1.2360
  8.039   1.2154
  8.027   1.2875
  8.015   1.2978
  8.002   1.2772
  7.990   1.3184
  7.978   1.3287
  7.965   1.3596
  7.953   1.3390
  7.941   1.3184
  7.929   1.2978
  7.917   1.3287
  7.905   1.3699
  7.893   1.3287
  7.881   1.2463
  7.869   1.2669
  7.857   1.2154
  7.845   1.2669
  7.833   1.2875
  7.821   1.2669
  7.809   1.2154
  7.798   1.2360
  7.786   1.2463
  7.774   1.3802
  7.763   1.3699
  7.751   1.3184
  7.739   1.3699
  7.728   1.3699
  7.716   1.2360
  7.705   1.2978
  7.694   1.3802
  7.682   1.4008
  7.671   1.3287
  7.659   1.3287
  7.648   1.3184
  7.637   1.3699
  7.626   1.3493
  7.614   1.3802
  7.603   1.4214
  7.592   1.4317
  7.581   1.4214
  7.570   1.4626
  7.559   1.4317
  7.548   1.4214
  7.537   1.3905
  7.526   1.4317
  7.515   1.4420
  7.504   1.4626
  7.493   1.4420
  7.483   1.4626
  7.472   1.4523
  7.461   1.4729
  7.450   1.4626
  7.440   1.4523
  7.429   1.4832
  7.418   1.5759
  7.408   1.5965
  7.397   1.4935
  7.387   1.4420
  7.376   1.5141
  7.366   1.5244
  7.355   1.6171
  7.345   1.6068
  7.334   1.5759
  7.324   1.5450
  7.314   1.5450
  7.303   1.5656
  7.293   1.5656
  7.283   1.5450
  7.273   1.6068
  7.263   1.6274
  7.252   1.6274
  7.242   1.6377
  7.232   1.6686
  7.222   1.6377
  7.212   1.6686
  7.202   1.6995
  7.192   1.7407
  7.182   1.7304
  7.172   1.7613
  7.162   1.7716
  7.152   1.8025
  7.143   1.8128
  7.133   1.8643
  7.123   1.8437
  7.113   1.8643
  7.103   1.9158
  7.094   1.9879
  7.084   1.9879
  7.074   2.0085
  7.065   2.0394
  7.055   2.0291
  7.046   1.9673
  7.036   1.9776
  7.026   1.9570
  7.017   2.0085
  7.007   2.0703
  6.998   2.1218
  6.989   2.0909
  6.979   2.0497
  6.970   2.0085
  6.960   2.0703
  6.951   2.1321
  6.942   2.1733
  6.932   2.0806
  6.923   1.9982
  6.914   1.9879
  6.905   2.0394
  6.896   2.0703
  6.886   2.1012
  6.877   2.0806
  6.868   2.1115
  6.859   2.1321
  6.850   2.1424
  6.841   2.1115
  6.832   2.1424
  6.823   2.1218
  6.814   2.1630
  6.805   2.1939
  6.796   2.2145
  6.787   2.1733
  6.778   2.2042
  6.770   2.2248
  6.761   2.2248
  6.752   2.1939
  6.743   2.2248
  6.734   2.2557
  6.726   2.2969
  6.717   2.2866
  6.708   2.2866
  6.700   2.2969
  6.691   2.3278
  6.682   2.2763
  6.674   2.2145
  6.665   2.2763
  6.657   2.4102
  6.648   2.3793
  6.640   2.3587
  6.631   2.3690
  6.623   2.3999
  6.614   2.4308
  6.606   2.3999
  6.597   2.4102
  6.589   2.4514
  6.581   2.4514
  6.572   2.4617
  6.564   2.4411
  6.556   2.4308
  6.547   2.4926
  6.539   2.5132
  6.531   2.4617
  6.523   2.4720
  6.514   2.5235
  6.506   2.5647
  6.498   2.5029
  6.490   2.4205
  6.482   2.3999
  6.474   2.4617
  6.466   2.4514
  6.458   2.4411
  6.450   2.4514
  6.442   2.3896
  6.434   2.3072
  6.426   2.2557
  6.418   2.2042
  6.410   2.1321
  6.402   2.0703
  6.394   2.0703
  6.386   2.0394
  6.378   2.0085
  6.370   1.9673
  6.363   1.9776
  6.355   1.9261
  6.347   1.8643
  6.339   1.8437
  6.332   1.9055
  6.324   1.9261
  6.316   1.8643
  6.308   1.7922
  6.301   1.8231
  6.293   1.8128
  6.286   1.7716
  6.278   1.7510
  6.270   1.8231
  6.263   1.8540
  6.255   1.8334
  6.248   1.7819
  6.240   1.7819
  6.233   1.7922
  6.225   1.8025
  6.218   1.7922
  6.210   1.8437
  6.203   1.7819
  6.195   1.7716
  6.188   1.7510
  6.181   1.7407
  6.173   1.7304
  6.166   1.7716
  6.159   1.7510
  6.151   1.7407
  6.144   1.7819
  6.137   1.8643
  6.130   1.8025
  6.122   1.7819
  6.115   1.7819
  6.108   1.7819
  6.101   1.7613
  6.094   1.7819
  6.086   1.8231
  6.079   1.7819
  6.072   1.7407
  6.065   1.7716
  6.058   1.8025
  6.051   1.7613
  6.044   1.7098
  6.037   1.7613
  6.030   1.8025
  6.023   1.8540
  6.016   1.8746
  6.009   1.8746
  6.002   1.8540
  5.995   1.8849
  5.988   1.8746
  5.981   1.8540
  5.974   1.8128
  5.967   1.8128
  5.960   1.8952
  5.954   1.9055
  5.947   1.7922
  5.940   1.8025
  5.933   1.8746
  5.926   1.9364
  5.920   1.9467
  5.913   1.9879
  5.906   1.9055
  5.899   1.8643
  5.893   1.8849
  5.886   1.9158
  5.879   1.9467
  5.873   1.9879
  5.866   2.0085
  5.859   2.0497
  5.853   2.0085
  5.846   2.0085
  5.840   2.0291
  5.833   2.0291
  5.827   2.0085
  5.820   2.0188
  5.813   2.0394
  5.807   2.0291
  5.800   2.0394
  5.794   2.1218
  5.788   2.1733
  5.781   2.1218
  5.775   2.0806
  5.768   2.1424
  5.762   2.1630
  5.755   2.1218
  5.749   2.1218
  5.743   2.1527
  5.736   2.1630
  5.730   2.1321
  5.724   2.1630
  5.717   2.2351
  5.711   2.1939
  5.705   2.1218
  5.698   2.1115
  5.692   2.1424
  5.686   2.1630
  5.680   2.1836
  5.674   2.1939
  5.667   2.1630
  5.661   2.1630
  5.655   2.1836
  5.649   2.1630
  5.643   2.2042
  5.637   2.2454
  5.630   2.2763
  5.624   2.2351
  5.618   2.1836
  5.612   2.1836
  5.606   2.1939
  5.600   2.2145
  5.594   2.2351
  5.588   2.2145
  5.582   2.2145
  5.576   2.2145
  5.570   2.2557
  5.564   2.2248
  5.558   2.2454
  5.552   2.2557
  5.546   2.2351
  5.540   2.2763
  5.534   2.3690
  5.528   2.3175
  5.523   2.2454
  5.517   2.2557
  5.511   2.3484
  5.505   2.3793
  5.499   2.3484
  5.493   2.3793
  5.487   2.3999
  5.482   2.3896
  5.476   2.3999
  5.470   2.3587
  5.464   2.3999
  5.459   2.4514
  5.453   2.4102
  5.447   2.4308
  5.441   2.4411
  5.436   2.3896
  5.430   2.4926
  5.424   2.5235
  5.419   2.4926
  5.413   2.4926
  5.407   2.5132
  5.402   2.5132
  5.396   2.5235
  5.390   2.5544
  5.385   2.5647
  5.379   2.5441
  5.374   2.5544
  5.368   2.5956
  5.363   2.6162
  5.357   2.5647
  5.352   2.5338
  5.346   2.5235
  5.341   2.5544
  5.335   2.5956
  5.330   2.5853
  5.324   2.6162
  5.319   2.6780
  5.313   2.6883
  5.308   2.6471
  5.302   2.6265
  5.297   2.6677
  5.291   2.6780
  5.286   2.6780
  5.281   2.6883
  5.275   2.7089
  5.270   2.6883
  5.265   2.6986
  5.259   2.6574
  5.254   2.6677
  5.249   2.7089
  5.243   2.7398
  5.238   2.7398
  5.233   2.7501
  5.227   2.7501
  5.222   2.7810
  5.217   2.7913
  5.212   2.7810
  5.206   2.8119
  5.201   2.8634
  5.196   2.8222
  5.191   2.7810
  5.186   2.7913
  5.180   2.8531
  5.175   2.8737
  5.170   2.8737
  5.165   2.8737
  5.160   2.9149
  5.155   2.9355
  5.150   2.9252
  5.145   2.8840
  5.139   2.9046
  5.134   2.9355
  5.129   2.9252
  5.124   2.9252
  5.119   2.9561
  5.114   2.9458
  5.109   2.9458
  5.104   2.9252
  5.099   2.9149
  5.094   2.9767
  5.089   3.0076
  5.084   2.9973
  5.079   2.9973
  5.074   2.9973
  5.069   3.0385
  5.064   3.0797
  5.059   3.1106
  5.054   3.1003
  5.049   3.0694
  5.044   3.0797
  5.040   3.1106
  5.035   3.1518
  5.030   3.1415
  5.025   3.1415
  5.020   3.1209
  5.015   3.1003
  5.010   3.1724
  5.005   3.2033
  5.001   3.1724
  4.996   3.2136
  4.991   3.2445
  4.986   3.2033
  4.981   3.1930
  4.977   3.2136
  4.972   3.2754
  4.967   3.2548
  4.962   3.2136
  4.958   3.2239
  4.953   3.2857
  4.948   3.2754
  4.943   3.2651
  4.939   3.3166
  4.934   3.3578
  4.929   3.3578
  4.925   3.3475
  4.920   3.3269
  4.915   3.3475
  4.911   3.3578
  4.906   3.3372
  4.901   3.3269
  4.897   3.3269
  4.892   3.3681
  4.888   3.3681
  4.883   3.4196
  4.878   3.4711
  4.874   3.4505
  4.869   3.3887
  4.865   3.4299
  4.860   3.4917
  4.856   3.4505
  4.851   3.4711
  4.846   3.5226
  4.842   3.4608
  4.837   3.4093
  4.833   3.4402
  4.828   3.4093
  4.824   3.4505
  4.819   3.5226
  4.815   3.5329
  4.810   3.5432
  4.806   3.5741
  4.802   3.5741
  4.797   3.5844
  4.793   3.5947
  4.788   3.5535
  4.784   3.5638
  4.779   3.5638
  4.775   3.5226
  4.771   3.5329
  4.766   3.5947
  4.762   3.6565
  4.758   3.6050
  4.753   3.6050
  4.749   3.7183
  4.744   3.7183
  4.740   3.6153
  4.736   3.5844
  4.731   3.6153
  4.727   3.6565
  4.723   3.6668
  4.719   3.6359
  4.714   3.6153
  4.710   3.5844
  4.706   3.6153
  4.701   3.6668
  4.697   3.7492
  4.693   3.7492
  4.689   3.6668
  4.684   3.6771
  4.680   3.7183
  4.676   3.7286
  4.672   3.7698
  4.668   3.7389
  4.663   3.7389
  4.659   3.7801
  4.655   3.7698
  4.651   3.7183
  4.647   3.6771
  4.643   3.7698
  4.638   3.8934
  4.634   3.8625
  4.630   3.8110
  4.626   3.8522
  4.622   3.9346
  4.618   3.9861
  4.614   3.9552
  4.610   3.9037
  4.605   3.9243
  4.601   3.9655
  4.597   4.0067
  4.593   4.0170
  4.589   3.9964
  4.585   4.0273
  4.581   4.0685
  4.577   4.0788
  4.573   4.0685
  4.569   4.0788
  4.565   4.0891
  4.561   4.0273
  4.557   4.0376
  4.553   4.0273
  4.549   3.9861
  4.545   4.0582
  4.541   4.1715
  4.537   4.1303
  4.533   4.0891
  4.529   4.1509
  4.525   4.2127
  4.521   4.2230
  4.517   4.2333
  4.513   4.2024
  4.509   4.2127
  4.505   4.2230
  4.502   4.2848
  4.498   4.2333
  4.494   4.2539
  4.490   4.3466
  4.486   4.3569
  4.482   4.3466
  4.478   4.3569
  4.474   4.3260
  4.470   4.2951
  4.467   4.2951
  4.463   4.3260
  4.459   4.4084
  4.455   4.4908
  4.451   4.5320
  4.447   4.5217
  4.444   4.4393
  4.440   4.4290
  4.436   4.3775
  4.432   4.3981
  4.428   4.5114
  4.425   4.5526
  4.421   4.5320
  4.417   4.4805
  4.413   4.4393
  4.410   4.4702
  4.406   4.4805
  4.402   4.5011
  4.398   4.5938
  4.395   4.6041
  4.391   4.5217
  4.387   4.4702
  4.384   4.4908
  4.380   4.5011
  4.376   4.6144
  4.372   4.6247
  4.369   4.5938
  4.365   4.6041
  4.361   4.5629
  4.358   4.5732
  4.354   4.6659
  4.350   4.7483
  4.347   4.6968
  4.343   4.6041
  4.340   4.6041
  4.336   4.6762
  4.332   4.7174
  4.329   4.6865
  4.325   4.6556
  4.321   4.6350
  4.318   4.6247
  4.314   4.6350
  4.311   4.6659
  4.307   4.7071
  4.304   4.7277
  4.300   4.7483
  4.296   4.7380
  4.293   4.7277
  4.289   4.7071
  4.286   4.6556
  4.282   4.6453
  4.279   4.6865
  4.275   4.6865
  4.272   4.7277
  4.268   4.7380
  4.265   4.7174
  4.261   4.7689
  4.258   4.8307
  4.254   4.8204
  4.251   4.8513
  4.247   4.7998
  4.244   4.8101
  4.240   4.9028
  4.237   4.8925
  4.233   4.7998
  4.230   4.8307
  4.226   4.8307
  4.223   4.8307
  4.219   4.8822
  4.216   4.8719
  4.213   4.8513
  4.209   4.8616
  4.206   4.9749
  4.202   5.0573
  4.199   4.9955
  4.196   4.9337
  4.192   4.9852
  4.189   4.9852
  4.185   4.9337
  4.182   4.9955
  4.179   5.0676
  4.175   5.0676
  4.172   5.0573
  4.169   5.0264
  4.165   4.9955
  4.162   5.0367
  4.159   5.1088
  4.155   5.1500
  4.152   5.0779
  4.149   5.0573
  4.145   5.0985
  4.142   5.1191
  4.139   5.1088
  4.135   5.0573
  4.132   5.0264
  4.129   5.0470
  4.126   5.0676
  4.122   5.0264
  4.119   4.9749
  4.116   5.0779
  4.112   5.1397
  4.109   5.1397
  4.106   5.1294
  4.103   5.1088
  4.099   5.0985
  4.096   5.1191
  4.093   5.1397
  4.090   5.0882
  4.086   5.0779
  4.083   5.1294
  4.080   5.0985
  4.077   5.0985
  4.074   5.1500
  4.070   5.1500
  4.067   5.0882
  4.064   5.0573
  4.061   5.0161
  4.058   5.0779
  4.055   5.0779
  4.051   5.0573
  4.048   5.0779
  4.045   5.0058
  4.042   5.0058
  4.039   5.0367
  4.036   4.9749
  4.032   5.0161
  4.029   5.0573
  4.026   5.0573
  4.023   5.0676
  4.020   5.0367
  4.017   4.9955
  4.014   4.9440
  4.011   4.8925
  4.008   4.9543
  4.004   4.9749
  4.001   4.9646
  3.998   4.9028
  3.995   4.9337
  3.992   4.9955
  3.989   4.9749
  3.986   4.9337
  3.983   4.9543
  3.980   4.9852
  3.977   4.9852
  3.974   4.9234
  3.971   4.9852
  3.968   4.9749
  3.965   4.9543
  3.962   4.9955
  3.959   5.0882
  3.956   5.0367
  3.953   4.9852
  3.950   4.9749
  3.947   4.9337
  3.944   4.9234
  3.941   5.0058
  3.938   4.9749
  3.935   4.9749
  3.932   4.9852
  3.929   5.0676
  3.926   5.1500
  3.923   5.0985
  3.920   5.0779
  3.917   5.0985
  3.914   5.0367
  3.911   5.0470
  3.908   5.0985
  3.905   5.1397
  3.902   5.0779
  3.899   5.0058
  3.896   4.9955
  3.893   5.0985
  3.890   5.0882
  3.887   5.0573
  3.884   5.0161
  3.882   5.0264
  3.879   4.9646
  3.876   5.0470
  3.873   5.1603
  3.870   5.1603
  3.867   5.1088
  3.864   5.0985
  3.861   5.0779
  3.858   4.9852
  3.856   4.9749
  3.853   5.0882
  3.850   5.0985
  3.847   5.1191
  3.844   5.0779
  3.841   5.1191
  3.838   5.1809
  3.836   5.1294
  3.833   4.9543
  3.830   4.9543
  3.827   5.0985
  3.824   5.1706
  3.822   5.1397
  3.819   5.1809
  3.816   5.1912
  3.813   5.2015
  3.810   5.2118
  3.807   5.2015
  3.805   5.0985
  3.802   5.0367
  3.799   5.1294
  3.796   5.3251
  3.794   5.3560
  3.791   5.3045
  3.788   5.3560
  3.785   5.3766
  3.782   5.2633
  3.780   5.3148
  3.777   5.3457
  3.774   5.3766
  3.771   5.3972
  3.769   5.3457
  3.766   5.2942
  3.763   5.2942
  3.761   5.3354
  3.758   5.4693
  3.755   5.5002
  3.752   5.4693
  3.750   5.3560
  3.747   5.2839
  3.744   5.2942
  3.742   5.4075
  3.739   5.3560
  3.736   5.2839
  3.733   5.3972
  3.731   5.4899
  3.728   5.3972
  3.725   5.3354
  3.723   5.2221
  3.720   5.2530
  3.717   5.3354
  3.715   5.3766
  3.712   5.3457
  3.709   5.3148
  3.707   5.3869
  3.704   5.4178
  3.702   5.3869
  3.699   5.3354
  3.696   5.3766
  3.694   5.4281
  3.691   5.3663
  3.688   5.2736
  3.686   5.2633
  3.683   5.2942
  3.680   5.2633
  3.678   5.3766
  3.675   5.3766
  3.673   5.2839
  3.670   5.2530
  3.667   5.3148
  3.665   5.3869
  3.662   5.4384
  3.660   5.3663
  3.657   5.2221
  3.655   5.2221
  3.652   5.2221
  3.649   5.1809
  3.647   5.2015
  3.644   5.1191
  3.642   5.1603
  3.639   5.2942
  3.637   5.3148
  3.634   5.2221
  3.632   5.2839
  3.629   5.2221
  3.626   5.0882
  3.624   5.1294
  3.621   5.2324
  3.619   5.2118
  3.616   5.1088
  3.614   5.0573
  3.611   5.1603
  3.609   5.1912
  3.606   5.1294
  3.604   5.1603
  3.601   5.2530
  3.599   5.2530
  3.596   5.2427
  3.594   5.1809
  3.591   5.0779
  3.589   5.0058
  3.586   4.9749
  3.584   4.9543
  3.581   5.0882
  3.579   5.0573
  3.576   4.9852
  3.574   4.9749
  3.571   4.9852
  3.569   5.0058
  3.567   5.0470
  3.564   4.9440
  3.562   4.9543
  3.559   4.9852
  3.557   4.9852
  3.554   4.9852
  3.552   4.9646
  3.549   4.9440
  3.547   4.9440
  3.545   4.9852
  3.542   4.9852
  3.540   4.8719
  3.537   4.7998
  3.535   4.8204
  3.533   4.7998
  3.530   4.7483
  3.528   4.7174
  3.525   4.6762
  3.523   4.6762
  3.521   4.6453
  3.518   4.6762
  3.516   4.6762
  3.513   4.7071
  3.511   4.5629
  3.509   4.5217
  3.506   4.5320
  3.504   4.4187
  3.502   4.4393
  3.499   4.6247
  3.497   4.6865
  3.494   4.6144
  3.492   4.5320
  3.490   4.5320
  3.487   4.5217
  3.485   4.4805
  3.483   4.4290
  3.480   4.5526
  3.478   4.5629
  3.476   4.5938
  3.473   4.5526
  3.471   4.4908
  3.469   4.5423
  3.466   4.4599
  3.464   4.4084
  3.462   4.4496
  3.460   4.4187
  3.457   4.4187
  3.455   4.4496
  3.453   4.5526
  3.450   4.5114
  3.448   4.5217
  3.446   4.5629
  3.443   4.5732
  3.441   4.5114
  3.439   4.4805
  3.437   4.4290
  3.434   4.3981
  3.432   4.3054
  3.430   4.3054
  3.428   4.2848
  3.425   4.2848
  3.423   4.2745
  3.421   4.3363
  3.418   4.3775
  3.416   4.3260
  3.414   4.2642
  3.412   4.2024
  3.409   4.2333
  3.407   4.3157
  3.405   4.3363
  3.403   4.3878
  3.401   4.3569
  3.398   4.3466
  3.396   4.3775
  3.394   4.3775
  3.392   4.2848
  3.389   4.3054
  3.387   4.3569
  3.385   4.3775
  3.383   4.2951
  3.381   4.3466
  3.378   4.3054
  3.376   4.1612
  3.374   4.0891
  3.372   4.2230
  3.370   4.2848
  3.367   4.2230
  3.365   4.1921
  3.363   4.2024
  3.361   4.1097
  3.359   4.1612
  3.357   4.1612
  3.354   4.2024
  3.352   4.2539
  3.350   4.2539
  3.348   4.2024
  3.346   4.1715
  3.344   4.1097
  3.341   4.1818
  3.339   4.2333
  3.337   4.2127
  3.335   4.1715
  3.333   4.1509
  3.331   4.0582
  3.329   4.1097
  3.326   4.2127
  3.324   4.3363
  3.322   4.3878
  3.320   4.3569
  3.318   4.2230
  3.316   4.1097
  3.314   4.1303
  3.312   4.2333
  3.309   4.2642
  3.307   4.3157
  3.305   4.2848
  3.303   4.2333
  3.301   4.1509
  3.299   4.2745
  3.297   4.3054
  3.295   4.1406
  3.293   4.0994
  3.291   4.1818
  3.288   4.0994
  3.286   4.1097
  3.284   4.2127
  3.282   4.2436
  3.280   4.1200
  3.278   4.1406
  3.276   4.2436
  3.274   4.2127
  3.272   4.0479
  3.270   4.1303
  3.268   4.1818
  3.266   4.1303
  3.264   4.1818
  3.262   4.1612
  3.259   4.0994
  3.257   4.1509
  3.255   4.1097
  3.253   4.1097
  3.251   4.1097
  3.249   4.1715
  3.247   4.1818
  3.245   4.2024
  3.243   4.0994
  3.241   3.9140
  3.239   3.9037
  3.237   3.9861
  3.235   4.0067
  3.233   4.1200
  3.231   4.1406
  3.229   4.0582
  3.227   4.0479
  3.225   4.0273
  3.223   4.0067
  3.221   4.1303
  3.219   4.0685
  3.217   3.9758
  3.215   3.9655
  3.213   3.9861
  3.211   4.0067
  3.209   3.9964
  3.207   3.9346
  3.205   3.9758
  3.203   4.0273
  3.201   3.9861
  3.199   3.8831
  3.197   3.9243
  3.195   4.0170
  3.193   4.0479
  3.191   3.9758
  3.189   3.9552
  3.187   3.8625
  3.185   3.8625
  3.183   3.8831
  3.182   3.8522
  3.180   3.9449
  3.178   4.0273
  3.176   3.9243
  3.174   3.7801
  3.172   3.7389
  3.170   3.7595
  3.168   3.7492
  3.166   3.8110
  3.164   3.9037
  3.162   3.8522
  3.160   3.7904
  3.158   3.7801
  3.156   3.6977
  3.154   3.7183
  3.152   3.7595
  3.151   3.7801
  3.149   3.7595
  3.147   3.7801
  3.145   3.7595
  3.143   3.7492
  3.141   3.6256
  3.139   3.6462
  3.137   3.6153
  3.135   3.6359
  3.133   3.7595
  3.132   3.7492
  3.130   3.6050
  3.128   3.4814
  3.126   3.4299
  3.124   3.5535
  3.122   3.7080
  3.120   3.8110
  3.118   3.7389
  3.117   3.7286
  3.115   3.6977
  3.113   3.6565
  3.111   3.5844
  3.109   3.5432
  3.107   3.5947
  3.105   3.5947
  3.103   3.5535
  3.102   3.6359
  3.100   3.6771
  3.098   3.7698
  3.096   3.6256
  3.094   3.5020
  3.092   3.5432
  3.091   3.5741
  3.089   3.5123
  3.087   3.4711
  3.085   3.5638
  3.083   3.6256
  3.081   3.5947
  3.079   3.7698
  3.078   3.6256
  3.076   3.4917
  3.074   3.4608
  3.072   3.5329
  3.070   3.5432
  3.069   3.5638
  3.067   3.5226
  3.065   3.5329
  3.063   3.5947
  3.061   3.7286
  3.060   3.6462
  3.058   3.6256
  3.056   3.7080
  3.054   3.6771
  3.052   3.5741
  3.051   3.5226
  3.049   3.4505
  3.047   3.5226
  3.045   3.5329
  3.043   3.5535
  3.042   3.4711
  3.040   3.4917
  3.038   3.5432
  3.036   3.6153
  3.034   3.5226
  3.033   3.4917
  3.031   3.4093
  3.029   3.4608
  3.027   3.5535
  3.026   3.5020
  3.024   3.5638
  3.022   3.7183
  3.020   3.7183
  3.019   3.6359
  3.017   3.5741
  3.015   3.6050
  3.013   3.5226
  3.012   3.5741
  3.010   3.5020
  3.008   3.5020
  3.006   3.6153
  3.005   3.6256
  3.003   3.5638
  3.001   3.5741
  2.999   3.5329
  2.998   3.5844
  2.996   3.5123
  2.994   3.4196
  2.992   3.3784
  2.991   3.5226
  2.989   3.5741
  2.987   3.4196
  2.986   3.3269
  2.984   3.2960
  2.982   3.3578
  2.980   3.5947
  2.979   3.6359
  2.977   3.6359
  2.975   3.5123
  2.974   3.4505
  2.972   3.5226
  2.970   3.5947
  2.968   3.5844
  2.967   3.5020
  2.965   3.3269
  2.963   3.3063
  2.962   3.3887
  2.960   3.5020
  2.958   3.4814
  2.957   3.5638
  2.955   3.4917
  2.953   3.4814
  2.952   3.5432
  2.950   3.6050
  2.948   3.5123
  2.947   3.3578
  2.945   3.2960
  2.943   3.5638
  2.942   3.7389
  2.940   3.6256
  2.938   3.5329
  2.937   3.4196
  2.935   3.2548
  2.933   3.4711
  2.932   3.5741
  2.930   3.6050
  2.928   3.5432
  2.927   3.4814
  2.925   3.3269
  2.923   3.3990
  2.922   3.5535
  2.920   3.6256
  2.918   3.4402
  2.917   3.3372
  2.915   3.4093
  2.913   3.5947
  2.912   3.5535
  2.910   3.5123
  2.909   3.3475
  2.907   3.3475
  2.905   3.4093
  2.904   3.3887
  2.902   3.4402
  2.900   3.3784
  2.899   3.1518
  2.897   3.2548
  2.896   3.3372
  2.894   3.3372
  2.892   3.3063
  2.891   3.4093
  2.889   3.3990
  2.887   3.4196
  2.886   3.4093
  2.884   3.4299
  2.883   3.5638
  2.881   3.7286
  2.879   3.5947
  2.878   3.5535
  2.876   3.5432
  2.875   3.3681
  2.873   3.3578
  2.871   3.5535
  2.870   3.5844
  2.868   3.6153
  2.867   3.5947
  2.865   3.6668
  2.864   3.7183
  2.862   3.8625
  2.860   3.7389
  2.859   3.6153
  2.857   3.3166
  2.856   3.2960
  2.854   3.4299
  2.853   3.4917
  2.851   3.5123
  2.849   3.7492
  2.848   3.6050
  2.846   3.4814
  2.845   3.5329
  2.843   3.5947
  2.842   3.6977
  2.840   3.6874
  2.838   3.5535
  2.837   3.5844
  2.835   3.5741
  2.834   3.6565
  2.832   3.6256
  2.831   3.5226
  2.829   3.6462
  2.828   3.8934
  2.826   3.9243
  2.825   3.8419
  2.823   3.6050
  2.821   3.5329
  2.820   3.4608
  2.818   3.3990
  2.817   3.6050
  2.815   3.6668
  2.814   3.5844
  2.812   3.5020
  2.811   3.5020
  2.809   3.4196
  2.808   3.2960
  2.806   3.5432
  2.805   3.6771
  2.803   3.7698
  2.802   3.8213
  2.800   3.7080
  2.799   3.6874
  2.797   3.9861
  2.796   3.9655
  2.794   3.7389
  2.793   3.6153
  2.791   3.6359
  2.790   3.5741
  2.788   3.5947
  2.787   3.6977
  2.785   3.6359
  2.784   3.3681
  2.782   3.5638
  2.781   3.7904
  2.779   3.5535
  2.778   3.6771
  2.776   3.8625
  2.775   3.7389
  2.773   3.9552
  2.772   4.0582
  2.770   4.1097
  2.769   4.0479
  2.767   4.0170
  2.766   3.7595
  2.764   3.5947
  2.763   3.5535
  2.761   3.7286
  2.760   3.8934
  2.758   3.8007
  2.757   3.6874
  2.756   3.7801
  2.754   3.7286
  2.753   3.7492
  2.751   3.7595
  2.750   3.9140
  2.748   4.0170
  2.747   4.0170
  2.745   4.0479
  2.744   4.1303
  2.742   4.1303
  2.741   4.2642
  2.740   4.1509
  2.738   4.2333
  2.737   4.3672
  2.735   4.3775
  2.734   4.2127
  2.732   4.2024
  2.731   4.1715
  2.729   4.3878
  2.728   4.4702
  2.727   4.5320
  2.725   4.5629
  2.724   4.5835
  2.722   4.4496
  2.721   4.3878
  2.719   4.6659
  2.718   4.8101
  2.717   4.7792
  2.715   5.0161
  2.714   5.1397
  2.712   5.2015
  2.711   5.2633
  2.709   5.2839
  2.708   5.3251
  2.707   5.4178
  2.705   5.6856
  2.704   5.9122
  2.702   5.7989
  2.701   5.8813
  2.700   5.8607
  2.698   5.9534
  2.697   5.8092
  2.695   5.9740
  2.694   6.0873
  2.693   6.1285
  2.691   6.2418
  2.690   6.4993
  2.688   6.2727
  2.687   6.3448
  2.686   6.4169
  2.684   6.4066
  2.683   6.3654
  2.681   6.3963
  2.680   6.2830
  2.679   6.2727
  2.677   6.6023
  2.676   6.7053
  2.675   6.4375
  2.673   6.5199
  2.672   6.7156
  2.670   6.6435
  2.669   6.6641
  2.668   6.7259
  2.666   6.7362
  2.665   6.8701
  2.664   6.7980
  2.662   6.7156
  2.661   6.7053
  2.659   6.8701
  2.658   6.9525
  2.657   6.8392
  2.655   6.7980
  2.654   6.9731
  2.653   6.9937
  2.651   7.0555
  2.650   7.1070
  2.649   7.1482
  2.647   7.0349
  2.646   7.0246
  2.645   7.1585
  2.643   7.1276
  2.642   6.8083
  2.640   6.8186
  2.639   7.0864
  2.638   7.3130
  2.636   7.3336
  2.635   7.2615
  2.634   7.0452
  2.632   7.0040
  2.631   7.1791
  2.630   7.3645
  2.628   7.2718
  2.627   7.3645
  2.626   7.3130
  2.624   7.3439
  2.623   7.2409
  2.622   7.3439
  2.620   7.1791
  2.619   7.1997
  2.618   7.3027
  2.617   7.1688
  2.615   7.0040
  2.614   7.4160
  2.613   7.5808
  2.611   7.4469
  2.610   7.0761
  2.609   7.0864
  2.607   7.1894
  2.606   7.2100
  2.605   7.0761
  2.603   7.1173
  2.602   7.2718
  2.601   7.6323
  2.599   7.7250
  2.598   7.4469
  2.597   7.1894
  2.596   7.2615
  2.594   7.3542
  2.593   7.5808
  2.592   7.4366
  2.590   7.2409
  2.589   7.3027
  2.588   7.1894
  2.586   7.0349
  2.585   7.2203
  2.584   7.2100
  2.583   7.3233
  2.581   7.5293
  2.580   7.3233
  2.579   6.9319
  2.577   6.9525
  2.576   7.2718
  2.575   7.4057
  2.574   7.0555
  2.572   7.2306
  2.571   7.4778
  2.570   7.5705
  2.569   7.4366
  2.567   7.3130
  2.566   7.1894
  2.565   7.2718
  2.563   7.4675
  2.562   7.3954
  2.561   7.3542
  2.560   7.3645
  2.558   7.4057
  2.557   7.5602
  2.556   7.2203
  2.555   6.9010
  2.553   6.8289
  2.552   7.1173
  2.551   7.2718
  2.550   7.5499
  2.548   7.7353
  2.547   7.3954
  2.546   7.0658
  2.545   7.1379
  2.543   7.2615
  2.542   7.4366
  2.541   7.1585
  2.540   6.9628
  2.538   7.0555
  2.537   7.1173
  2.536   7.1070
  2.535   7.1585
  2.533   7.1173
  2.532   7.3233
  2.531   7.2718
  2.530   7.3542
  2.528   7.5190
  2.527   7.4881
  2.526   7.3336
  2.525   7.4675
  2.524   7.0555
  2.522   7.0555
  2.521   7.2924
  2.520   7.5705
  2.519   7.3645
  2.517   7.2100
  2.516   7.1894
  2.515   7.4572
  2.514   7.7559
  2.513   7.7971
  2.511   7.4881
  2.510   7.3542
  2.509   7.4263
  2.508   7.4160
  2.506   7.2100
  2.505   7.3233
  2.504   7.3851
  2.503   7.1482
  2.502   6.8804
  2.500   7.1791
  2.496   6.8774
  2.492   7.6134
  2.488   7.8617
  2.484   7.2456
  2.480   7.2718
  2.476   7.5114
  2.472   7.4229
  2.468   7.4059
  2.464   7.4604
  2.460   7.4626
  2.456   7.4288
  2.452   7.5661
  2.448   7.7405
  2.444   7.6533
  2.440   7.3835
  2.436   7.8963
  2.432   7.9083
  2.428   7.6829
  2.424   7.4238
  2.420   8.2980
  2.416   7.5639
  2.412   7.7043
  2.408   8.0500
  2.404   7.7557
  2.400   8.0287
  2.396   8.3013
  2.392   7.9550
  2.388   7.4958
  2.384   8.0415
  2.380   8.3121
  2.376   7.7169
  2.372   8.0102
  2.368   8.3973
  2.364   8.0648
  2.360   8.3393
  2.356   7.9468
  2.352   8.1719
  2.348   8.4170
  2.344   8.2697
  2.340   7.9778
  2.336   8.0247
  2.332   8.1720
  2.328   8.1813
  2.324   8.1209
  2.320   8.0846
  2.316   8.1055
  2.312   8.3365
  2.308   7.9072
  2.304   8.0942
  2.300   8.2197
  2.296   8.2640
  2.292   8.1185
  2.288   8.2819
  2.284   8.4534
  2.280   8.3051
  2.276   8.3311
  2.272   8.4136
  2.268   8.5888
  2.264   8.4224
  2.260   8.4604
  2.256   8.6737
  2.252   8.5507
  2.248   8.5159
  2.244   8.7349
  2.240   8.7290
  2.236   8.7495
  2.232   8.6905
  2.228   8.8294
  2.224   8.8433
  2.220   8.9075
  2.216   8.7538
  2.212   8.7273
  2.208   8.8379
  2.204   8.8732
  2.200   8.9349
  2.196   8.9809
  2.192   9.0485
  2.188   9.0346
  2.184   9.1021
  2.180   9.1017
  2.176   9.1090
  2.172   9.0805
  2.168   9.0931
  2.164   9.0307
  2.160   9.1055
  2.156   9.1778
  2.152   9.1073
  2.148   9.1629
  2.144   9.1907
  2.140   9.1589
  2.136   9.1619
  2.132   9.1666
  2.128   9.1438
  2.124   9.0665
  2.120   9.0698
  2.116   9.0743
  2.112   9.0491
  2.108   8.9994
  2.104   8.9791
  2.100   8.9647
  2.096   9.0488
  2.092   8.9048
  2.088   8.9173
  2.084   9.0596
  2.080   9.0641
  2.076   9.0653
  2.072   9.0993
  2.068   8.9895
  2.064   8.9782
  2.060   9.0520
  2.056   9.0874
  2.052   9.0906
  2.048   9.0242
  2.044   9.0555
  2.040   9.0999
  2.036   9.0743
  2.032   9.0621
  2.028   9.0597
  2.024   9.0430
  2.020   9.0099
  2.016   8.9870
  2.012   8.9844
  2.008   8.9814
  2.004   8.9868
  2.000   8.9589
  1.996   8.9375
  1.992   8.9129
  1.988   8.9138
  1.984   8.9144
  1.980   8.8921
  1.976   8.8854
  1.972   8.8989
  1.968   8.8335
  1.964   8.7971
  1.960   8.8223
  1.956   8.7920
  1.952   8.7725
  1.948   8.7641
  1.944   8.7823
  1.940   8.8519
  1.936   8.7607
  1.932   8.6352
  1.928   8.5458
  1.924   8.5033
  1.920   8.4343
  1.916   8.3141
  1.912   8.3236
  1.908   8.3344
  1.904   8.3618
  1.900   8.4695
  1.896   8.6127
  1.892   8.7587
  1.888   8.8405
  1.884   8.9665
  1.880   9.1912
  1.876   9.3423
  1.872   9.4323
  1.868   9.4923
  1.864   9.4665
  1.860   9.4220
  1.856   9.4537
  1.852   9.5085
  1.848   9.5552
  1.844   9.5974
  1.840   9.6296
  1.836   9.5848
  1.832   9.5021
  1.828   9.5142
  1.824   9.5489
  1.820   9.5143
  1.816   9.5005
  1.812   9.5322
  1.808   9.5421
  1.804   9.5530
  1.800   9.5719
  1.796   9.5867
  1.792   9.6150
  1.788   9.6408
  1.784   9.6544
  1.780   9.6491
  1.776   9.6460
  1.772   9.6594
  1.768   9.6592
  1.764   9.6559
  1.760   9.6244
  1.756   9.5979
  1.752   9.6039
  1.748   9.5879
  1.744   9.6103
  1.740   9.6306
  1.736   9.6129
  1.732   9.5948
  1.728   9.5869
  1.724   9.5897
  1.720   9.5913
  1.716   9.5629
  1.712   9.5605
  1.708   9.5509
  1.704   9.5274
  1.700   9.5540
  1.696   9.5918
  1.692   9.5949
  1.688   9.6344
  1.684   9.6585
  1.680   9.6173
  1.676   9.5698
  1.672   9.5468
  1.668   9.5214
  1.664   9.6210
  1.660   9.5650
  1.656   9.5139
  1.652   9.5338
  1.648   9.5704
  1.644   9.5598
  1.640   9.5293
  1.636   9.5046
  1.632   9.4540
  1.628   9.4441
  1.624   9.4502
  1.620   9.4521
  1.616   9.4366
  1.612   9.4267
  1.608   9.3523
  1.604   9.3016
  1.600   9.2839
  1.596   9.3136
  1.592   9.3337
  1.588   9.2758
  1.584   9.1987
  1.580   9.1851
  1.576   9.2528
  1.572   9.1882
  1.568   9.1502
  1.564   9.1155
  1.560   9.0770
  1.556   9.0459
  1.552   9.0551
  1.548   9.0183
  1.544   8.9395
  1.540   8.9395
  1.536   8.8910
  1.532   8.9229
  1.528   8.8722
  1.524   8.8097
  1.520   8.7374
  1.516   8.7464
  1.512   8.7609
  1.508   8.6897
  1.504   8.6265
  1.500   8.5934
  1.496   8.5571
  1.492   8.5925
  1.488   8.4985
  1.484   8.4269
  1.480   8.4155
  1.476   8.4471
  1.472   8.3440
  1.468   8.3507
  1.464   8.2771
  1.460   8.2181
  1.456   8.2393
  1.452   8.2421
  1.448   8.1560
  1.444   8.0916
  1.440   8.0645
  1.436   8.0074
  1.432   8.0427
  1.428   8.0233
  1.424   7.9362
  1.420   7.9653
  1.416   7.9626
  1.412   7.9040
  1.408   7.8982
  1.404   7.8443
  1.400   7.7913
  1.396   7.8274
  1.392   7.8323
  1.388   7.7972
  1.384   7.9110
  1.380   7.8596
  1.376   7.7052
  1.372   7.6789
  1.368   7.7754
  1.364   7.8395
  1.360   7.7393
  1.356   7.5248
  1.352   7.4652
  1.348   7.4942
  1.344   7.5515
  1.340   7.5856
  1.336   7.6228
  1.332   7.5754
  1.328   7.4870
  1.324   7.3932
  1.320   7.3768
  1.316   7.3947
  1.312   7.3111
  1.308   7.3246
  1.304   7.3135
  1.300   7.2857
  1.296   7.3005
  1.292   7.2853
  1.288   7.2814
  1.284   7.2204
  1.280   7.2222
  1.276   7.1723
  1.272   7.1996
  1.268   7.1568
  1.264   7.1046
  1.260   7.1164
  1.256   7.1457
  1.252   7.1005
  1.248   7.0586
  1.244   7.0884
  1.240   7.0699
  1.236   7.0397
  1.232   6.9986
  1.228   6.9774
  1.224   7.0727
  1.220   6.9905
  1.216   6.9269
  1.212   6.9702
  1.208   6.9551
  1.204   6.9377
  1.200   6.8829
  1.196   6.9217
  1.192   6.8629
  1.188   6.8809
  1.184   6.8418
  1.180   6.8145
  1.176   6.8619
  1.172   6.9068
  1.168   6.7987
  1.164   6.8065
  1.160   6.7709
  1.156   6.7922
  1.152   6.7979
  1.148   6.7529
  1.144   6.6526
  1.140   6.6906
  1.136   6.7224
  1.132   6.7004
  1.128   6.6627
  1.124   6.5995
  1.120   6.6110
  1.116   6.5907
  1.112   6.5982
  1.108   6.5606
  1.104   6.5085
  1.100   6.5141
  1.096   6.5283
  1.092   6.4762
  1.088   6.4088
  1.084   6.4575
  1.080   6.4557
  1.076   6.4422
  1.072   6.4319
  1.068   6.3692
  1.064   6.3688
  1.060   6.4032
  1.056   6.4033
  1.052   6.3745
  1.048   6.3551
  1.044   6.3818
  1.040   6.3847
  1.036   6.4237
  1.032   6.4201
  1.028   6.3869
  1.024   6.3578
  1.020   6.3807
  1.016   6.3676
  1.012   6.3990
  1.008   6.4114
  1.004   6.4057
  1.000   6.4207
  0.996   6.4311
  0.992   6.4253
  0.988   6.4549
  0.984   6.4628
  0.980   6.4573
  0.976   6.4802
  0.972   6.5044
  0.968   6.4937
  0.964   6.5073
  0.960   6.5725
  0.956   6.5445
  0.952   6.5374
  0.948   6.5680
  0.944   6.5667
  0.940   6.5998
  0.936   6.5934
  0.932   6.5825
  0.928   6.6384
  0.924   6.7709
  0.920   6.8639
  0.916   6.8990
  0.912   6.8918
  0.908   6.8904
  0.904   6.9301
  0.900   6.9629
  0.896   6.9781
  0.892   6.9889
  0.888   6.9986
  0.884   7.0407
  0.880   6.9971
  0.876   7.0827
  0.872   7.0856
  0.868   6.9294
  0.864   6.8388
  0.860   6.9295
  0.856   7.0568
  0.852   7.0066
  0.848   6.8266
  0.844   6.8482
  0.840   6.9410
  0.836   6.9783
  0.832   6.9764
  0.828   7.0318
  0.824   7.0074
  0.820   6.9681
  0.816   6.9883
  0.812   7.0145
  0.808   7.0048
  0.804   6.9857
  0.800   6.9916
  0.796   6.9713
  0.792   6.9741
  0.788   6.9594
  0.784   6.9789
  0.780   6.9620
  0.776   6.9382
  0.772   6.9379
  0.768   6.9194
  0.764   6.8999
  0.760   6.9064
  0.756   6.8794
  0.752   6.8592
  0.748   6.8491
  0.744   6.8197
  0.740   6.8086
  0.736   6.8090
  0.732   6.7897
  0.728   6.7463
  0.724   6.7092
  0.720   6.6959
  0.716   6.6705
  0.712   6.6514
  0.708   6.6149
  0.704   6.5785
  0.700   6.5545
  0.696   6.5186
  0.692   6.4913
  0.688   6.4714
  0.684   6.4417
  0.680   6.4138
  0.676   6.3928
  0.672   6.3669
  0.668   6.3393
  0.664   6.3046
  0.660   6.2820
  0.656   6.2545
  0.652   6.2281
  0.648   6.2163
  0.644   6.1998
  0.640   6.1783
  0.636   6.1464
  0.632   6.1298
  0.628   6.1004
  0.624   6.0647
  0.620   6.0499
  0.616   6.0356
  0.612   6.0054
  0.608   5.9848
  0.604   5.9559
  0.600   5.9241
  0.596   5.9077
  0.592   5.8804
  0.588   5.8493
  0.584   5.8060
  0.580   5.7749
  0.576   5.7460
  0.572   5.7094
  0.568   5.6836
  0.564   5.6548
  0.560   5.6252
  0.556   5.5945
  0.552   5.5604
  0.548   5.5332
  0.544   5.5068
  0.540   5.4846
  0.536   5.4578
  0.532   5.4429
  0.528   5.4283
  0.524   5.4114
  0.520   5.3917
  0.516   5.3810
  0.512   5.3662
  0.508   5.3512
  0.504   5.3351
  0.500   5.3286
  0.496   5.3035
  0.492   5.2614
  0.488   5.2342
  0.484   5.2036
  0.480   5.1937
  0.476   5.2099
  0.472   5.2031
  0.468   5.2108
  0.464   5.2161
  0.460   5.1958
  0.456   5.1693
  0.452   5.1457
  0.448   5.1121
  0.444   5.0710
  0.440   5.0493
  0.436   5.0323
  0.432   5.0105
  0.428   4.9889
  0.424   4.9728
  0.420   4.9643
  0.416   4.9542
  0.412   4.9416
  0.408   4.9366
  0.404   4.9327
  0.400   4.9107
