Name: Rhyolite
Type: Rock
Class: Igneous
Subclass: Felsic
Particle Size: Whole Rock Chips
Sample No.: AP-980-121
Owner: United States Geological Survey, L. C. Rowan
Wavelength range: 0.405 - 14.05 um
Origin: Iberian Pyrite Belt, Spain

Description: Rhyolite, light tan, very fine rock





Measurement: Directional Hemispherical Reflectance
First Column: X
Second Column: Y
X Units: Wavelength (micrometers)
Y Units: Reflectance (percent)
First X Value: 14.05105
Last X Value: 0.40500
Number of X Values: 2530
Additional Information: rhy121a.txt

 14.051   2.1733
 14.013   2.1115
 13.975   2.1321
 13.938   2.1115
 13.900   2.2042
 13.863   2.2557
 13.826   2.3793
 13.790   2.3587
 13.753   2.2557
 13.717   2.2042
 13.680   2.3072
 13.644   2.2969
 13.609   2.4102
 13.573   2.4617
 13.538   2.5956
 13.502   2.5647
 13.467   2.6059
 13.432   2.5029
 13.398   2.5750
 13.363   2.5544
 13.329   2.5132
 13.295   2.4411
 13.261   2.5647
 13.227   2.6265
 13.193   2.7089
 13.160   2.6574
 13.126   2.6986
 13.093   2.7501
 13.060   2.7913
 13.027   2.7604
 12.995   2.9046
 12.962   2.9355
 12.930   3.0179
 12.898   3.1003
 12.866   3.2342
 12.834   3.2857
 12.802   3.3681
 12.771   3.3475
 12.739   3.2960
 12.708   3.0797
 12.677   2.9046
 12.646   2.7295
 12.616   2.6677
 12.585   2.6883
 12.554   2.8737
 12.524   2.8943
 12.494   2.9458
 12.464   2.9355
 12.434   2.8325
 12.404   2.5647
 12.375   2.4102
 12.345   2.1733
 12.316   2.0085
 12.287   1.8437
 12.258   1.9055
 12.229   2.0909
 12.200   2.1939
 12.171   2.1939
 12.143   2.2351
 12.115   2.2042
 12.086   2.3175
 12.058   2.3587
 12.030   2.4411
 12.002   2.4617
 11.975   2.6059
 11.947   2.6265
 11.920   2.6780
 11.892   2.7192
 11.865   2.8119
 11.838   2.8737
 11.811   2.9664
 11.784   2.9870
 11.757   3.1209
 11.731   3.1209
 11.704   3.1827
 11.678   3.2651
 11.652   3.3990
 11.626   3.3784
 11.600   3.3990
 11.574   3.3887
 11.548   3.3990
 11.522   3.2857
 11.497   3.3887
 11.471   3.4711
 11.446   3.5844
 11.421   3.5947
 11.396   3.6359
 11.371   3.5432
 11.346   3.5535
 11.321   3.6050
 11.297   3.7183
 11.272   3.6771
 11.248   3.6359
 11.223   3.6153
 11.199   3.6977
 11.175   3.7286
 11.151   3.8316
 11.127   3.8625
 11.103   3.8934
 11.079   3.8728
 11.056   3.9037
 11.032   3.8110
 11.009   3.8728
 10.985   3.8316
 10.962   3.8522
 10.939   3.8728
 10.916   3.8831
 10.893   3.7904
 10.870   3.7595
 10.848   3.7183
 10.825   3.6874
 10.802   3.6565
 10.780   3.7183
 10.758   3.7080
 10.735   3.6462
 10.713   3.5226
 10.691   3.5741
 10.669   3.6256
 10.647   3.6977
 10.625   3.6668
 10.604   3.7080
 10.582   3.7389
 10.560   3.6977
 10.539   3.6668
 10.518   3.7492
 10.496   3.8213
 10.475   3.8934
 10.454   3.9655
 10.433   4.0685
 10.412   4.1097
 10.391   4.2539
 10.370   4.3466
 10.350   4.3981
 10.329   4.3775
 10.309   4.4908
 10.288   4.5732
 10.268   4.7174
 10.247   4.7071
 10.227   4.7895
 10.207   4.9543
 10.187   5.0882
 10.167   5.1809
 10.147   5.3354
 10.127   5.4075
 10.108   5.4899
 10.088   5.5620
 10.068   5.6959
 10.049   5.8401
 10.029   6.0873
 10.010   6.2521
  9.991   6.3963
  9.972   6.4478
  9.952   6.6641
  9.933   6.8186
  9.914   6.8804
  9.895   6.8598
  9.877   6.7980
  9.858   6.7465
  9.839   6.7568
  9.821   6.6847
  9.802   6.7465
  9.783   6.8804
  9.765   7.0864
  9.747   7.1688
  9.728   7.3748
  9.710   7.6014
  9.692   7.9104
  9.674   8.1267
  9.656   8.4048
  9.638   8.6314
  9.620   8.8786
  9.602   8.9095
  9.585   9.0125
  9.567   9.0949
  9.549   9.1876
  9.532   9.1567
  9.514   9.1773
  9.497   9.1876
  9.479   9.2391
  9.462   9.2494
  9.445   9.3524
  9.428   9.4245
  9.411   9.6099
  9.394   9.8262
  9.377  10.0734
  9.360  10.2382
  9.343  10.4339
  9.326  10.6811
  9.309  10.8768
  9.293  10.9386
  9.276  11.0004
  9.259  10.9180
  9.243  10.9489
  9.226  10.9283
  9.210  10.9077
  9.194  10.8768
  9.178  10.8150
  9.161  10.6502
  9.145  10.5060
  9.129  10.3103
  9.113  10.2176
  9.097  10.1043
  9.081  10.0528
  9.065   9.7953
  9.049   9.4966
  9.034   9.2803
  9.018   9.1155
  9.002   8.8889
  8.987   8.8374
  8.971   8.7962
  8.956   8.8786
  8.940   8.9816
  8.925   9.2391
  8.909   9.3833
  8.894   9.4863
  8.879   9.5172
  8.864   9.5687
  8.849   9.5584
  8.834   9.4966
  8.819   9.4142
  8.804   9.3421
  8.789   9.1876
  8.774   9.0846
  8.759   8.8786
  8.744   8.8374
  8.730   8.7447
  8.715   8.6211
  8.700   8.4357
  8.686   8.2606
  8.671   8.0340
  8.657   7.7147
  8.642   7.3233
  8.628   6.9834
  8.614   6.7671
  8.599   6.9937
  8.585   7.3645
  8.571   7.7147
  8.557   7.9207
  8.543   8.1061
  8.529   8.1782
  8.515   8.1885
  8.501   8.2091
  8.487   8.2400
  8.473   8.1576
  8.459   8.1370
  8.445   8.1061
  8.431   8.1576
  8.418   8.1576
  8.404   8.2503
  8.391   8.2812
  8.377   8.3430
  8.363   8.3533
  8.350   8.3739
  8.337   8.3327
  8.323   8.3739
  8.310   8.4151
  8.297   8.5284
  8.283   8.6726
  8.270   8.7550
  8.257   8.7859
  8.244   8.8786
  8.231   8.9301
  8.218   9.0228
  8.205   9.1052
  8.192   9.1567
  8.179   9.0743
  8.166   8.9816
  8.153   8.7550
  8.140   8.4769
  8.128   8.1061
  8.115   7.7147
  8.102   7.2718
  8.090   6.9422
  8.077   6.6023
  8.064   6.2933
  8.052   5.9637
  8.039   5.6959
  8.027   5.3045
  8.015   5.0882
  8.002   4.8822
  7.990   4.7071
  7.978   4.5423
  7.965   4.3672
  7.953   4.1200
  7.941   4.0067
  7.929   3.7904
  7.917   3.6359
  7.905   3.4711
  7.893   3.3063
  7.881   3.1621
  7.869   3.0797
  7.857   2.9355
  7.845   2.8222
  7.833   2.7192
  7.821   2.6574
  7.809   2.5956
  7.798   2.5750
  7.786   2.5338
  7.774   2.5132
  7.763   2.4514
  7.751   2.4514
  7.739   2.4411
  7.728   2.3793
  7.716   2.2866
  7.705   2.2660
  7.694   2.2454
  7.682   2.2660
  7.671   2.1733
  7.659   2.1733
  7.648   2.1527
  7.637   2.1115
  7.626   2.0291
  7.614   2.0291
  7.603   1.9879
  7.592   1.9879
  7.581   1.9055
  7.570   1.8643
  7.559   1.9055
  7.548   1.9467
  7.537   1.9158
  7.526   1.8952
  7.515   1.8334
  7.504   1.8437
  7.493   1.8334
  7.483   1.8231
  7.472   1.7922
  7.461   1.8334
  7.450   1.7819
  7.440   1.7304
  7.429   1.6686
  7.418   1.7098
  7.408   1.6480
  7.397   1.6171
  7.387   1.6480
  7.376   1.7510
  7.366   1.6995
  7.355   1.6892
  7.345   1.6995
  7.334   1.6686
  7.324   1.6377
  7.314   1.6995
  7.303   1.6480
  7.293   1.6583
  7.283   1.6995
  7.273   1.6995
  7.263   1.6377
  7.252   1.6377
  7.242   1.5759
  7.232   1.5759
  7.222   1.5553
  7.212   1.6274
  7.202   1.6892
  7.192   1.6377
  7.182   1.5862
  7.172   1.6171
  7.162   1.6274
  7.152   1.6377
  7.143   1.6068
  7.133   1.6892
  7.123   1.6892
  7.113   1.6789
  7.103   1.6274
  7.094   1.6171
  7.084   1.6274
  7.074   1.6480
  7.065   1.6686
  7.055   1.6686
  7.046   1.6274
  7.036   1.6789
  7.026   1.6480
  7.017   1.6480
  7.007   1.6583
  6.998   1.6892
  6.989   1.6995
  6.979   1.7304
  6.970   1.7613
  6.960   1.7716
  6.951   1.6789
  6.942   1.6789
  6.932   1.7304
  6.923   1.7716
  6.914   1.7407
  6.905   1.7613
  6.896   1.7407
  6.886   1.6892
  6.877   1.6583
  6.868   1.7201
  6.859   1.7407
  6.850   1.8128
  6.841   1.8334
  6.832   1.8540
  6.823   1.8643
  6.814   1.9055
  6.805   1.8231
  6.796   1.8437
  6.787   1.8952
  6.778   1.9776
  6.770   2.0085
  6.761   2.0291
  6.752   2.0085
  6.743   2.0394
  6.734   1.9982
  6.726   1.9982
  6.717   2.0600
  6.708   2.0909
  6.700   1.9982
  6.691   2.0085
  6.682   1.9982
  6.674   1.9982
  6.665   2.0497
  6.657   2.0909
  6.648   2.0806
  6.640   2.0497
  6.631   2.0291
  6.623   2.1012
  6.614   2.1012
  6.606   2.0909
  6.597   2.0497
  6.589   1.9982
  6.581   1.9570
  6.572   1.9673
  6.564   1.9364
  6.556   1.9261
  6.547   1.9055
  6.539   1.9364
  6.531   1.9261
  6.523   1.9467
  6.514   1.9673
  6.506   2.0188
  6.498   2.0909
  6.490   2.1115
  6.482   2.0497
  6.474   2.0909
  6.466   2.1012
  6.458   2.1321
  6.450   2.1218
  6.442   2.1218
  6.434   2.1218
  6.426   2.1733
  6.418   2.1630
  6.410   2.1321
  6.402   2.1424
  6.394   2.1939
  6.386   2.2042
  6.378   2.2351
  6.370   2.1630
  6.363   2.1424
  6.355   2.1527
  6.347   2.1630
  6.339   2.1321
  6.332   2.0806
  6.324   2.0291
  6.316   2.1218
  6.308   2.1218
  6.301   2.0909
  6.293   2.0085
  6.286   1.9776
  6.278   1.9261
  6.270   1.9467
  6.263   1.9776
  6.255   1.9261
  6.248   1.8643
  6.240   1.8952
  6.233   1.8540
  6.225   1.8643
  6.218   1.8849
  6.210   1.8334
  6.203   1.8025
  6.195   1.8540
  6.188   1.8540
  6.181   1.8849
  6.173   1.8952
  6.166   1.8952
  6.159   1.8746
  6.151   1.8540
  6.144   1.8437
  6.137   1.8643
  6.130   1.8437
  6.122   1.8746
  6.115   1.9055
  6.108   1.9261
  6.101   1.8952
  6.094   1.9055
  6.086   1.8746
  6.079   1.8746
  6.072   1.9261
  6.065   1.9982
  6.058   1.8746
  6.051   1.8334
  6.044   1.8540
  6.037   1.9055
  6.030   1.9467
  6.023   2.0085
  6.016   1.9982
  6.009   1.9879
  6.002   1.9364
  5.995   1.9261
  5.988   1.9467
  5.981   1.9776
  5.974   1.9467
  5.967   1.9467
  5.960   1.9364
  5.954   1.9570
  5.947   1.9467
  5.940   1.9570
  5.933   1.9776
  5.926   2.0497
  5.920   2.0600
  5.913   2.0703
  5.906   2.1012
  5.899   2.2248
  5.893   2.2454
  5.886   2.2351
  5.879   2.3072
  5.873   2.4308
  5.866   2.4514
  5.859   2.5132
  5.853   2.5441
  5.846   2.6059
  5.840   2.6677
  5.833   2.7192
  5.827   2.7192
  5.820   2.7707
  5.813   2.8222
  5.807   2.9149
  5.800   2.9973
  5.794   3.0385
  5.788   3.0282
  5.781   3.1106
  5.775   3.1827
  5.768   3.2136
  5.762   3.2342
  5.755   3.3166
  5.749   3.3475
  5.743   3.4093
  5.736   3.4917
  5.730   3.5432
  5.724   3.5638
  5.717   3.6153
  5.711   3.6771
  5.705   3.7492
  5.698   3.8110
  5.692   3.8728
  5.686   3.8728
  5.680   3.9140
  5.674   3.9140
  5.667   3.8831
  5.661   3.8316
  5.655   3.8625
  5.649   3.8522
  5.643   3.8316
  5.637   3.7698
  5.630   3.7286
  5.624   3.7286
  5.618   3.7286
  5.612   3.6668
  5.606   3.6771
  5.600   3.6771
  5.594   3.6874
  5.588   3.6874
  5.582   3.7183
  5.576   3.7492
  5.570   3.7801
  5.564   3.7801
  5.558   3.7698
  5.552   3.8213
  5.546   3.9140
  5.540   3.9140
  5.534   3.9655
  5.528   4.0170
  5.523   4.0788
  5.517   4.1715
  5.511   4.2642
  5.505   4.2333
  5.499   4.3260
  5.493   4.4393
  5.487   4.4908
  5.482   4.4702
  5.476   4.5217
  5.470   4.6041
  5.464   4.7071
  5.459   4.7586
  5.453   4.7689
  5.447   4.7998
  5.441   4.8616
  5.436   4.8616
  5.430   4.8616
  5.424   4.7895
  5.419   4.7380
  5.413   4.6659
  5.407   4.5835
  5.402   4.5011
  5.396   4.4290
  5.390   4.2848
  5.385   4.1715
  5.379   4.0891
  5.374   4.0067
  5.368   3.9037
  5.363   3.8831
  5.357   3.8625
  5.352   3.7904
  5.346   3.7904
  5.341   3.8419
  5.335   3.8419
  5.330   3.8934
  5.324   3.9346
  5.319   3.9449
  5.313   3.9243
  5.308   3.9861
  5.302   4.0067
  5.297   4.0582
  5.291   4.0994
  5.286   4.1509
  5.281   4.2024
  5.275   4.2848
  5.270   4.3672
  5.265   4.4496
  5.259   4.5114
  5.254   4.6247
  5.249   4.7277
  5.243   4.8719
  5.238   4.9646
  5.233   5.0985
  5.227   5.1912
  5.222   5.3251
  5.217   5.4487
  5.212   5.5929
  5.206   5.6753
  5.201   5.7783
  5.196   5.8298
  5.191   5.9019
  5.186   5.8916
  5.180   5.9019
  5.175   5.9225
  5.170   5.9637
  5.165   5.9225
  5.160   5.9328
  5.155   5.9431
  5.150   5.9946
  5.145   6.0461
  5.139   6.0564
  5.134   6.0564
  5.129   6.0564
  5.124   6.0152
  5.119   6.0667
  5.114   6.1388
  5.109   6.2006
  5.104   6.1800
  5.099   6.1594
  5.094   6.1388
  5.089   6.1594
  5.084   6.1285
  5.079   6.0873
  5.074   6.0358
  5.069   6.0049
  5.064   5.9843
  5.059   6.0358
  5.054   6.0564
  5.049   6.0770
  5.044   6.0770
  5.040   6.0976
  5.035   6.0461
  5.030   6.0461
  5.025   6.0770
  5.020   6.1388
  5.015   6.1800
  5.010   6.2109
  5.005   6.2212
  5.001   6.2933
  4.996   6.3139
  4.991   6.2933
  4.986   6.3139
  4.981   6.4169
  4.977   6.5096
  4.972   6.7053
  4.967   6.8804
  4.962   7.0143
  4.958   7.1791
  4.953   7.3645
  4.948   7.4984
  4.943   7.5911
  4.939   7.6632
  4.934   7.8074
  4.929   7.8383
  4.925   7.9001
  4.920   8.0237
  4.915   8.1782
  4.911   8.3018
  4.906   8.5593
  4.901   8.8271
  4.897   9.1258
  4.892   9.3833
  4.888   9.6511
  4.883   9.8880
  4.878  10.1661
  4.874  10.3824
  4.869  10.5884
  4.865  10.7532
  4.860  10.9489
  4.856  11.1343
  4.851  11.2270
  4.846  11.2888
  4.842  11.4330
  4.837  11.5360
  4.833  11.6596
  4.828  11.7626
  4.824  11.8347
  4.819  11.8965
  4.815  11.9892
  4.810  12.0304
  4.806  12.0922
  4.802  12.1231
  4.797  12.2673
  4.793  12.3188
  4.788  12.3497
  4.784  12.3394
  4.779  12.3600
  4.775  12.4424
  4.771  12.5145
  4.766  12.5145
  4.762  12.6175
  4.758  12.7308
  4.753  12.8441
  4.749  12.8853
  4.744  12.8544
  4.740  12.8956
  4.736  13.0810
  4.731  13.1119
  4.727  13.1428
  4.723  13.2149
  4.719  13.2767
  4.714  13.2458
  4.710  13.2664
  4.706  13.2149
  4.701  13.1943
  4.697  13.1943
  4.693  13.1737
  4.689  13.0913
  4.684  13.0604
  4.680  13.1016
  4.676  13.1840
  4.672  13.2046
  4.668  13.2870
  4.663  13.4003
  4.659  13.5033
  4.655  13.6166
  4.651  13.7402
  4.647  13.8535
  4.643  14.0286
  4.638  14.1625
  4.634  14.3067
  4.630  14.3788
  4.626  14.4509
  4.622  14.5848
  4.618  14.7908
  4.614  14.8835
  4.610  14.9453
  4.605  14.9865
  4.601  15.1204
  4.597  15.2234
  4.593  15.3470
  4.589  15.4088
  4.585  15.5015
  4.581  15.5942
  4.577  15.7075
  4.573  15.6766
  4.569  15.7178
  4.565  15.8311
  4.561  15.8929
  4.557  15.9032
  4.553  15.9135
  4.549  15.8620
  4.545  15.9135
  4.541  15.9444
  4.537  15.9238
  4.533  15.9341
  4.529  15.9444
  4.525  15.8929
  4.521  15.8414
  4.517  15.6869
  4.513  15.6251
  4.509  15.5324
  4.505  15.3882
  4.502  15.2543
  4.498  15.2337
  4.494  15.2131
  4.490  15.1616
  4.486  15.0895
  4.482  15.0483
  4.478  15.0483
  4.474  15.1410
  4.470  15.1513
  4.467  15.1616
  4.463  15.1822
  4.459  15.2543
  4.455  15.3264
  4.451  15.4809
  4.447  15.6457
  4.444  15.8929
  4.440  16.0165
  4.436  16.0474
  4.432  16.0577
  4.428  16.1195
  4.425  16.1607
  4.421  16.3049
  4.417  16.4285
  4.413  16.6139
  4.410  16.6963
  4.406  16.7581
  4.402  16.8405
  4.398  16.9332
  4.395  17.1186
  4.391  17.3555
  4.387  17.4482
  4.384  17.5306
  4.380  17.6542
  4.376  17.8396
  4.372  17.9838
  4.369  18.1383
  4.365  18.2619
  4.361  18.3855
  4.358  18.4679
  4.354  18.5606
  4.350  18.6327
  4.347  18.7151
  4.343  18.8490
  4.340  19.0035
  4.336  19.1374
  4.332  19.2507
  4.329  19.1786
  4.325  19.1683
  4.321  19.2507
  4.318  19.3022
  4.314  19.2507
  4.311  19.2816
  4.307  19.3125
  4.304  19.3331
  4.300  19.3537
  4.296  19.4155
  4.293  19.4258
  4.289  19.3949
  4.286  19.3331
  4.282  19.3537
  4.279  19.2610
  4.275  19.2507
  4.272  19.1683
  4.268  19.0756
  4.265  19.0138
  4.261  19.1683
  4.258  19.3228
  4.254  19.4773
  4.251  19.6112
  4.247  19.7760
  4.244  19.8584
  4.240  19.9511
  4.237  19.9511
  4.233  19.9511
  4.230  19.9717
  4.226  20.0850
  4.223  20.1056
  4.219  20.0850
  4.216  20.1365
  4.213  20.1468
  4.209  20.0438
  4.206  20.0644
  4.202  20.0850
  4.199  20.1159
  4.196  20.1468
  4.192  20.1365
  4.189  20.1468
  4.185  20.2189
  4.182  20.1880
  4.179  20.2086
  4.175  20.2910
  4.172  20.3734
  4.169  20.4352
  4.165  20.4867
  4.162  20.4455
  4.159  20.5073
  4.155  20.6206
  4.152  20.5691
  4.149  20.5176
  4.145  20.5382
  4.142  20.5794
  4.139  20.6206
  4.135  20.5897
  4.132  20.6618
  4.129  20.7339
  4.126  20.7648
  4.122  20.7339
  4.119  20.7854
  4.116  20.8060
  4.112  20.8781
  4.109  20.9708
  4.106  21.0635
  4.103  21.0223
  4.099  21.0326
  4.096  21.0429
  4.093  21.0120
  4.090  20.9914
  4.086  21.0223
  4.083  21.1253
  4.080  21.1562
  4.077  21.0944
  4.074  21.1253
  4.070  21.2077
  4.067  21.2180
  4.064  21.1356
  4.061  21.1768
  4.058  21.1768
  4.055  21.2180
  4.051  21.2592
  4.048  21.2283
  4.045  21.1356
  4.042  21.1356
  4.039  21.1665
  4.036  21.2798
  4.032  21.2386
  4.029  21.1871
  4.026  21.1459
  4.023  21.1253
  4.020  21.0635
  4.017  21.0017
  4.014  20.8678
  4.011  20.8575
  4.008  20.8987
  4.004  20.9708
  4.001  21.0326
  3.998  21.1047
  3.995  21.0532
  3.992  20.9811
  3.989  20.9708
  3.986  21.0223
  3.983  20.9399
  3.980  21.0120
  3.977  21.1356
  3.974  21.1562
  3.971  21.0944
  3.968  21.0738
  3.965  21.0841
  3.962  21.1459
  3.959  21.1356
  3.956  21.1253
  3.953  21.0429
  3.950  21.0532
  3.947  21.1047
  3.944  21.0944
  3.941  21.1356
  3.938  21.2283
  3.935  21.1974
  3.932  21.2077
  3.929  21.2180
  3.926  21.2283
  3.923  21.2180
  3.920  21.1665
  3.917  21.1253
  3.914  21.1974
  3.911  21.1768
  3.908  21.1459
  3.905  21.1356
  3.902  21.1356
  3.899  21.0223
  3.896  20.9193
  3.893  20.8575
  3.890  20.9296
  3.887  20.9811
  3.884  21.0120
  3.882  20.9296
  3.879  20.9090
  3.876  20.9090
  3.873  20.8472
  3.870  20.6927
  3.867  20.7133
  3.864  20.7339
  3.861  20.7751
  3.858  20.7957
  3.856  20.7133
  3.853  20.6618
  3.850  20.7133
  3.847  20.6721
  3.844  20.5073
  3.841  20.4558
  3.838  20.5485
  3.836  20.5279
  3.833  20.5485
  3.830  20.4558
  3.827  20.3940
  3.824  20.3425
  3.822  20.3837
  3.819  20.4352
  3.816  20.4558
  3.813  20.3837
  3.810  20.4146
  3.807  20.3837
  3.805  20.3116
  3.802  20.2704
  3.799  20.2601
  3.796  20.1674
  3.794  20.0747
  3.791  20.0335
  3.788  20.0850
  3.785  20.0335
  3.782  19.9820
  3.780  19.9099
  3.777  19.9305
  3.774  19.8275
  3.771  19.7863
  3.769  19.7863
  3.766  19.7863
  3.763  19.7245
  3.761  19.6936
  3.758  19.6112
  3.755  19.5700
  3.752  19.5494
  3.750  19.5185
  3.747  19.3331
  3.744  19.3434
  3.742  19.2919
  3.739  19.2404
  3.736  19.1477
  3.733  19.0962
  3.731  19.0550
  3.728  18.9726
  3.725  18.8696
  3.723  18.9314
  3.720  18.9520
  3.717  18.8593
  3.715  18.7254
  3.712  18.7872
  3.709  18.7666
  3.707  18.6842
  3.704  18.6018
  3.702  18.6636
  3.699  18.6636
  3.696  18.6533
  3.694  18.6327
  3.691  18.5606
  3.688  18.4885
  3.686  18.5091
  3.683  18.4267
  3.680  18.3855
  3.678  18.2825
  3.675  18.3340
  3.673  18.2516
  3.670  18.1692
  3.667  18.1898
  3.665  18.2413
  3.662  18.1177
  3.660  18.0250
  3.657  17.9941
  3.655  17.9941
  3.652  17.8705
  3.649  17.7778
  3.647  17.7366
  3.644  17.7572
  3.642  17.6542
  3.639  17.6336
  3.637  17.6233
  3.634  17.5615
  3.632  17.4894
  3.629  17.4482
  3.626  17.3864
  3.624  17.3349
  3.621  17.2010
  3.619  17.2216
  3.616  17.0774
  3.614  16.9641
  3.611  16.9744
  3.609  16.9538
  3.606  16.7787
  3.604  16.6654
  3.601  16.6551
  3.599  16.6345
  3.596  16.4903
  3.594  16.4388
  3.591  16.3770
  3.589  16.3152
  3.586  16.3049
  3.584  16.2225
  3.581  16.0886
  3.579  15.9959
  3.576  15.8208
  3.574  15.7384
  3.571  15.7384
  3.569  15.6869
  3.567  15.5942
  3.564  15.5221
  3.562  15.3985
  3.559  15.2543
  3.557  15.0689
  3.554  14.9556
  3.552  14.9762
  3.549  15.0071
  3.547  14.9041
  3.545  14.8423
  3.542  14.7084
  3.540  14.6466
  3.537  14.6157
  3.535  14.5230
  3.533  14.2861
  3.530  14.2346
  3.528  14.1625
  3.525  13.9874
  3.523  13.9771
  3.521  14.0183
  3.518  13.8329
  3.516  13.7299
  3.513  13.5651
  3.511  13.2870
  3.509  12.9986
  3.506  12.8750
  3.504  12.8029
  3.502  12.8647
  3.499  12.9471
  3.497  13.0810
  3.494  13.0192
  3.492  12.9677
  3.490  12.9059
  3.487  12.7926
  3.485  12.7205
  3.483  12.7823
  3.480  12.7308
  3.478  12.6484
  3.476  12.5351
  3.473  12.5248
  3.471  12.5248
  3.469  12.5454
  3.466  12.4836
  3.464  12.4733
  3.462  12.3806
  3.460  12.3703
  3.457  12.2982
  3.455  12.2261
  3.453  12.1746
  3.450  12.0613
  3.448  11.8656
  3.446  11.8862
  3.443  11.8656
  3.441  11.8347
  3.439  11.7008
  3.437  11.6390
  3.434  11.4948
  3.432  11.3197
  3.430  11.0725
  3.428  10.9386
  3.425  10.7944
  3.423  10.7635
  3.421  10.6811
  3.418  10.6708
  3.416  10.6914
  3.414  10.6502
  3.412  10.5369
  3.409  10.5060
  3.407  10.5369
  3.405  10.6193
  3.403  10.5987
  3.401  10.6502
  3.398  10.6914
  3.396  10.6811
  3.394  10.5678
  3.392  10.6296
  3.389  10.5884
  3.387  10.5678
  3.385  10.5781
  3.383  10.5884
  3.381  10.5163
  3.378  10.4957
  3.376  10.5060
  3.374  10.5060
  3.372  10.4957
  3.370  10.5884
  3.367  10.5781
  3.365  10.5266
  3.363  10.5060
  3.361  10.5369
  3.359  10.6502
  3.357  10.7532
  3.354  10.7120
  3.352  10.6811
  3.350  10.5987
  3.348  10.5678
  3.346  10.5781
  3.344  10.6296
  3.341  10.5987
  3.339  10.5884
  3.337  10.5678
  3.335  10.6502
  3.333  10.5781
  3.331  10.4751
  3.329  10.5266
  3.326  10.5266
  3.324  10.3824
  3.322  10.4133
  3.320  10.4854
  3.318  10.4442
  3.316  10.2588
  3.314  10.2897
  3.312  10.3206
  3.309  10.3000
  3.307  10.2279
  3.305  10.1352
  3.303  10.0425
  3.301   9.9395
  3.299   9.7438
  3.297   9.7747
  3.295   9.9086
  3.293   9.9189
  3.291   9.7747
  3.288   9.7335
  3.286   9.7747
  3.284   9.7541
  3.282   9.6408
  3.280   9.5893
  3.278   9.5275
  3.276   9.5481
  3.274   9.5378
  3.272   9.4760
  3.270   9.4657
  3.268   9.4966
  3.266   9.3524
  3.264   9.2803
  3.262   9.1464
  3.259   9.2494
  3.257   9.3318
  3.255   9.2700
  3.253   9.2185
  3.251   9.2803
  3.249   9.2082
  3.247   9.0846
  3.245   9.0434
  3.243   9.1258
  3.241   9.1670
  3.239   9.1258
  3.237   9.1155
  3.235   9.0743
  3.233   9.0125
  3.231   9.0846
  3.229   8.9610
  3.227   8.8786
  3.225   8.8580
  3.223   8.8580
  3.221   8.9507
  3.219   8.9301
  3.217   8.7550
  3.215   8.7859
  3.213   8.6932
  3.211   8.6108
  3.209   8.6005
  3.207   8.6623
  3.205   8.6623
  3.203   8.7138
  3.201   8.7138
  3.199   8.7035
  3.197   8.6829
  3.195   8.5593
  3.193   8.4666
  3.191   8.4872
  3.189   8.4357
  3.187   8.3430
  3.185   8.2606
  3.183   8.2915
  3.182   8.3018
  3.180   8.2606
  3.178   8.2091
  3.176   8.2297
  3.174   8.0958
  3.172   8.0546
  3.170   8.0340
  3.168   8.0546
  3.166   7.9928
  3.164   8.0546
  3.162   8.0031
  3.160   7.9722
  3.158   7.9310
  3.156   7.8383
  3.154   7.7353
  3.152   7.6941
  3.151   7.7456
  3.149   7.7250
  3.147   7.6529
  3.145   7.5808
  3.143   7.4881
  3.141   7.5705
  3.139   7.5911
  3.137   7.4881
  3.135   7.4469
  3.133   7.4675
  3.132   7.4057
  3.130   7.3542
  3.128   7.3233
  3.126   7.1791
  3.124   7.0864
  3.122   7.2203
  3.120   7.2615
  3.118   7.2512
  3.117   7.1791
  3.115   7.1997
  3.113   7.1688
  3.111   7.1173
  3.109   7.0864
  3.107   7.0452
  3.105   6.8495
  3.103   6.9113
  3.102   6.9319
  3.100   6.8804
  3.098   6.8495
  3.096   6.8289
  3.094   6.7980
  3.092   6.9113
  3.091   6.8392
  3.089   6.7774
  3.087   6.7465
  3.085   6.7671
  3.083   6.6744
  3.081   6.6744
  3.079   6.6950
  3.078   6.6023
  3.076   6.4684
  3.074   6.4581
  3.072   6.4478
  3.070   6.5199
  3.069   6.4169
  3.067   6.3963
  3.065   6.5199
  3.063   6.5817
  3.061   6.3757
  3.060   6.2109
  3.058   6.1800
  3.056   6.3139
  3.054   6.4272
  3.052   6.4787
  3.051   6.3551
  3.049   6.2830
  3.047   6.2109
  3.045   6.2521
  3.043   6.2521
  3.042   6.3551
  3.040   6.3963
  3.038   6.3345
  3.036   6.2315
  3.034   6.2212
  3.033   6.0873
  3.031   6.0770
  3.029   6.2006
  3.027   6.2521
  3.026   6.2727
  3.024   6.3963
  3.022   6.2109
  3.020   6.0152
  3.019   6.0770
  3.017   6.2315
  3.015   6.1697
  3.013   6.0667
  3.012   6.0255
  3.010   6.1388
  3.008   6.1079
  3.006   6.0770
  3.005   5.9843
  3.003   6.1388
  3.001   6.3345
  2.999   6.1697
  2.998   6.1491
  2.996   6.2418
  2.994   6.1079
  2.992   6.1182
  2.991   6.1594
  2.989   6.2315
  2.987   6.2418
  2.986   6.2624
  2.984   6.1491
  2.982   6.1697
  2.980   6.2830
  2.979   6.2006
  2.977   6.1491
  2.975   6.2933
  2.974   6.3757
  2.972   6.3654
  2.970   6.2212
  2.968   6.2418
  2.967   6.1491
  2.965   6.2109
  2.963   6.2212
  2.962   6.2830
  2.960   6.2521
  2.958   6.0976
  2.957   5.8813
  2.955   6.0461
  2.953   6.2830
  2.952   6.2006
  2.950   6.0770
  2.948   6.3448
  2.947   6.4478
  2.945   6.2830
  2.943   6.2521
  2.942   6.2315
  2.940   6.1388
  2.938   6.2315
  2.937   6.1903
  2.935   6.3242
  2.933   6.4272
  2.932   6.4066
  2.930   6.2109
  2.928   6.2933
  2.927   6.3963
  2.925   6.5096
  2.923   6.4684
  2.922   6.3654
  2.920   6.3345
  2.918   6.3551
  2.917   6.2933
  2.915   6.3448
  2.913   6.3242
  2.912   6.4684
  2.910   6.4066
  2.909   6.2521
  2.907   6.3036
  2.905   6.3757
  2.904   6.3860
  2.902   6.4993
  2.900   6.4272
  2.899   6.2933
  2.897   6.2315
  2.896   6.3654
  2.894   6.5096
  2.892   6.6435
  2.891   6.6023
  2.889   6.5920
  2.887   6.4066
  2.886   6.4787
  2.884   6.6332
  2.883   6.8083
  2.881   6.8083
  2.879   6.7774
  2.878   6.6229
  2.876   6.7362
  2.875   6.6847
  2.873   6.5302
  2.871   6.4272
  2.870   6.7568
  2.868   6.9319
  2.867   6.7465
  2.865   6.7774
  2.864   6.9422
  2.862   6.8907
  2.860   7.0040
  2.859   7.0555
  2.857   7.0349
  2.856   6.9731
  2.854   6.8701
  2.853   6.9113
  2.851   7.1276
  2.849   7.1276
  2.848   6.9834
  2.846   6.8598
  2.845   6.8289
  2.843   6.9628
  2.842   7.1379
  2.840   7.0967
  2.838   7.0555
  2.837   6.9628
  2.835   7.0040
  2.834   6.9319
  2.832   6.9319
  2.831   6.9628
  2.829   7.1791
  2.828   7.2718
  2.826   7.3130
  2.825   7.0143
  2.823   6.9525
  2.821   7.1276
  2.820   7.1791
  2.818   6.9422
  2.817   6.7362
  2.815   6.7259
  2.814   6.9010
  2.812   6.8083
  2.811   6.8083
  2.809   6.8289
  2.808   6.8392
  2.806   6.8598
  2.805   6.8495
  2.803   6.5199
  2.802   6.4066
  2.800   6.6332
  2.799   6.4993
  2.797   6.2418
  2.796   6.2418
  2.794   6.1285
  2.793   6.0461
  2.791   5.9740
  2.790   5.8607
  2.788   5.6341
  2.787   5.4899
  2.785   5.4075
  2.784   5.4796
  2.782   5.3869
  2.781   5.2324
  2.779   4.9440
  2.778   4.8719
  2.776   4.8513
  2.775   4.8822
  2.773   4.8410
  2.772   4.6762
  2.770   4.4805
  2.769   4.5320
  2.767   4.3260
  2.766   4.0273
  2.764   3.6977
  2.763   3.6050
  2.761   3.3990
  2.760   3.1415
  2.758   2.9458
  2.757   3.1930
  2.756   3.4917
  2.754   3.7183
  2.753   3.8213
  2.751   4.0067
  2.750   3.9964
  2.748   4.0994
  2.747   4.1406
  2.745   4.1715
  2.744   3.9758
  2.742   3.7183
  2.741   3.6874
  2.740   3.8728
  2.738   3.8316
  2.737   3.7389
  2.735   3.8419
  2.734   4.2127
  2.732   4.3569
  2.731   4.2436
  2.729   4.1921
  2.728   4.3672
  2.727   4.6659
  2.725   4.9028
  2.724   4.7689
  2.722   4.7792
  2.721   5.0058
  2.719   5.1191
  2.718   5.3766
  2.717   5.6856
  2.715   5.7680
  2.714   5.8092
  2.712   5.6032
  2.711   5.3354
  2.709   5.2221
  2.708   5.2942
  2.707   4.7998
  2.705   4.6247
  2.704   4.7277
  2.702   4.5938
  2.701   4.5938
  2.700   5.0367
  2.698   5.7062
  2.697   6.5920
  2.695   7.5396
  2.694   8.7344
  2.693   9.7438
  2.691  10.7841
  2.690  11.8347
  2.688  13.0295
  2.687  14.2243
  2.686  15.1616
  2.684  16.2122
  2.683  17.3452
  2.681  18.1692
  2.680  19.0241
  2.679  19.6627
  2.677  20.5588
  2.676  21.2695
  2.675  21.8463
  2.673  22.1450
  2.672  22.6497
  2.670  22.9793
  2.669  23.3192
  2.668  23.5767
  2.666  24.0299
  2.665  24.6273
  2.664  25.0908
  2.662  25.2865
  2.661  25.5131
  2.659  25.9148
  2.658  26.6049
  2.657  26.8315
  2.655  26.8418
  2.654  26.9036
  2.653  27.1199
  2.651  27.5113
  2.650  27.7379
  2.649  27.5937
  2.647  27.8306
  2.646  28.1499
  2.645  28.3868
  2.643  28.2735
  2.642  28.2632
  2.640  28.4177
  2.639  28.5619
  2.638  28.7061
  2.636  29.0460
  2.635  29.2623
  2.634  29.4683
  2.632  29.4786
  2.631  29.5713
  2.630  29.5713
  2.628  29.5713
  2.627  29.4271
  2.626  29.6434
  2.624  29.8494
  2.623  30.0348
  2.622  30.1275
  2.620  30.3850
  2.619  30.5086
  2.618  30.2099
  2.617  29.8288
  2.615  30.1790
  2.614  30.4468
  2.613  30.5807
  2.611  30.7249
  2.610  30.6734
  2.609  30.4365
  2.607  30.4880
  2.606  30.7764
  2.605  30.8691
  2.603  30.6528
  2.602  30.7455
  2.601  30.9309
  2.599  31.3429
  2.598  31.4768
  2.597  31.6725
  2.596  31.6210
  2.594  31.4459
  2.593  31.3429
  2.592  31.3120
  2.590  31.2708
  2.589  31.2914
  2.588  31.3120
  2.586  31.5283
  2.585  31.6107
  2.584  31.5386
  2.583  31.5180
  2.581  31.7343
  2.580  31.7961
  2.579  31.7034
  2.577  31.7343
  2.576  31.8888
  2.575  31.8064
  2.574  31.9094
  2.572  32.1978
  2.571  32.3935
  2.570  32.3420
  2.569  32.3832
  2.567  32.4759
  2.566  32.6922
  2.565  32.7952
  2.563  32.7231
  2.562  32.4347
  2.561  32.4347
  2.560  32.6201
  2.558  32.6716
  2.557  32.5789
  2.556  32.7849
  2.555  33.0115
  2.553  33.2278
  2.552  33.3205
  2.551  33.3308
  2.550  33.1557
  2.548  33.3514
  2.547  33.1763
  2.546  32.9085
  2.545  32.9909
  2.543  33.1660
  2.542  33.1454
  2.541  33.2896
  2.540  33.2896
  2.538  33.2587
  2.537  33.2690
  2.536  33.5574
  2.535  33.6192
  2.533  33.3926
  2.532  33.3514
  2.531  33.6604
  2.530  33.5986
  2.528  33.5265
  2.527  33.4441
  2.526  33.3926
  2.525  33.5265
  2.524  33.5780
  2.522  33.5059
  2.521  33.5780
  2.520  33.6192
  2.519  33.8252
  2.517  33.6295
  2.516  33.4132
  2.515  33.3823
  2.514  33.6192
  2.513  33.7222
  2.511  33.4750
  2.510  33.2793
  2.509  33.6089
  2.508  33.5986
  2.506  33.7531
  2.505  33.6707
  2.504  33.4853
  2.503  33.3308
  2.502  33.3617
  2.500  33.4132
  2.497  33.4132
  2.493  33.3132
  2.489  33.2132
  2.485  33.2132
  2.481  32.9132
  2.477  32.9132
  2.473  32.8132
  2.469  32.8132
  2.465  32.7132
  2.461  32.5132
  2.457  32.5132
  2.453  32.4132
  2.449  32.4132
  2.445  32.5132
  2.441  32.7132
  2.437  32.7132
  2.433  32.8132
  2.429  33.0132
  2.425  33.2132
  2.421  33.5132
  2.417  33.8132
  2.413  34.0132
  2.409  34.4132
  2.405  34.6132
  2.401  35.0132
  2.397  35.4132
  2.393  35.7132
  2.389  35.7132
  2.385  35.8132
  2.381  36.0132
  2.377  36.1132
  2.373  36.1132
  2.369  36.0132
  2.365  36.0132
  2.361  35.6132
  2.357  35.5132
  2.353  35.5132
  2.349  35.4132
  2.345  35.4132
  2.341  35.5132
  2.337  35.6132
  2.333  36.0132
  2.329  36.2132
  2.325  36.6132
  2.321  37.1132
  2.317  37.7132
  2.313  38.4132
  2.309  39.1132
  2.305  39.7132
  2.301  39.7132
  2.297  41.3132
  2.293  41.3132
  2.289  41.8132
  2.285  42.4132
  2.281  43.0132
  2.277  43.5132
  2.273  43.8132
  2.269  43.8132
  2.265  43.8132
  2.261  43.7132
  2.257  43.3132
  2.253  42.9132
  2.249  42.4132
  2.245  41.9132
  2.241  41.3132
  2.237  41.0132
  2.233  40.1132
  2.229  39.3132
  2.225  38.2132
  2.221  37.4132
  2.217  36.5132
  2.213  36.1132
  2.209  35.5132
  2.205  35.2132
  2.201  35.2132
  2.197  35.4132
  2.193  36.1132
  2.189  37.2132
  2.185  38.3132
  2.181  39.4132
  2.177  40.6132
  2.173  41.9132
  2.169  43.0132
  2.165  44.0132
  2.161  44.6132
  2.157  44.6132
  2.153  45.1132
  2.149  45.5132
  2.145  45.7132
  2.141  46.2132
  2.137  46.2132
  2.133  46.5132
  2.129  46.2132
  2.125  46.0132
  2.121  46.0132
  2.117  46.3132
  2.113  46.7132
  2.109  46.8132
  2.105  47.1132
  2.101  47.4132
  2.097  47.7132
  2.093  47.9132
  2.089  48.2132
  2.085  48.2132
  2.081  48.4132
  2.077  48.5132
  2.073  48.9132
  2.069  49.3132
  2.065  49.3132
  2.061  49.5132
  2.057  49.9132
  2.053  50.1132
  2.049  49.6132
  2.045  49.5132
  2.041  49.4132
  2.037  49.1132
  2.033  49.3132
  2.029  49.1132
  2.025  49.1132
  2.021  49.0132
  2.017  48.8132
  2.013  48.5132
  2.009  48.7132
  2.005  48.5132
  2.001  48.4132
  1.997  48.2132
  1.993  47.9132
  1.989  47.9132
  1.985  47.7132
  1.981  47.6132
  1.977  47.6132
  1.973  47.4132
  1.969  47.4132
  1.965  47.6132
  1.961  47.4132
  1.957  47.3132
  1.953  47.1132
  1.949  47.0132
  1.945  46.7132
  1.941  46.6132
  1.937  46.6132
  1.933  46.5132
  1.929  46.3132
  1.925  46.0132
  1.921  45.9132
  1.917  45.6132
  1.913  45.7132
  1.909  45.7132
  1.905  46.1132
  1.901  46.5132
  1.897  47.1132
  1.893  48.3132
  1.889  49.4132
  1.885  50.5132
  1.881  51.7132
  1.877  53.1132
  1.873  53.5132
  1.869  53.8132
  1.865  53.9132
  1.861  54.3132
  1.857  54.9132
  1.853  55.4132
  1.849  55.9132
  1.845  55.7132
  1.841  55.9132
  1.837  55.9132
  1.833  55.6132
  1.829  55.6132
  1.825  56.1132
  1.821  56.6132
  1.817  56.8132
  1.813  56.4132
  1.809  56.4132
  1.805  56.5132
  1.801  56.5132
  1.797  56.6132
  1.793  56.6132
  1.789  56.7132
  1.785  56.7132
  1.781  56.7132
  1.777  56.8132
  1.773  56.7132
  1.769  56.6132
  1.765  56.7132
  1.761  56.7132
  1.757  56.7132
  1.753  56.8132
  1.749  56.8132
  1.745  57.0132
  1.741  57.2132
  1.737  57.3132
  1.733  57.5132
  1.729  57.5132
  1.725  57.3132
  1.721  57.1132
  1.717  57.2132
  1.713  57.2132
  1.709  57.1132
  1.705  57.2132
  1.701  57.5132
  1.697  57.6132
  1.693  57.6132
  1.689  57.3132
  1.685  57.8132
  1.681  57.7132
  1.677  57.6132
  1.673  57.7132
  1.669  57.7132
  1.665  57.6132
  1.661  57.5132
  1.657  57.1132
  1.653  57.1132
  1.649  57.5132
  1.645  57.5132
  1.641  57.6132
  1.637  57.5132
  1.633  57.6132
  1.629  57.2132
  1.625  57.3132
  1.621  57.3132
  1.617  57.5132
  1.613  57.5132
  1.609  57.3132
  1.605  57.6132
  1.601  57.7132
  1.597  57.7132
  1.593  57.8132
  1.589  57.6132
  1.585  57.6132
  1.581  57.5132
  1.577  57.2132
  1.573  57.1132
  1.569  57.2132
  1.565  57.3132
  1.561  56.8132
  1.557  56.7132
  1.553  57.0132
  1.549  57.0132
  1.545  57.0132
  1.541  57.2132
  1.537  57.2132
  1.533  57.5132
  1.529  57.6132
  1.525  57.7132
  1.521  57.9132
  1.517  57.6132
  1.513  57.5132
  1.509  57.3132
  1.505  57.2132
  1.501  57.0132
  1.497  56.8132
  1.493  56.7132
  1.489  56.8132
  1.485  56.8132
  1.481  56.8132
  1.477  56.8132
  1.473  56.7132
  1.469  56.8132
  1.465  56.8132
  1.461  56.8132
  1.457  56.8132
  1.453  56.7132
  1.449  56.7132
  1.445  56.7132
  1.441  56.4132
  1.437  55.9132
  1.433  55.6132
  1.429  54.9132
  1.425  53.8132
  1.421  52.4132
  1.417  50.6132
  1.413  48.8132
  1.409  47.8132
  1.405  47.6132
  1.401  48.3132
  1.397  50.0132
  1.393  51.8132
  1.389  53.1132
  1.385  55.6132
  1.381  56.7132
  1.377  56.8132
  1.373  57.9132
  1.369  59.0132
  1.365  59.2132
  1.361  58.6132
  1.357  58.2132
  1.353  59.0132
  1.349  59.2132
  1.345  59.5132
  1.341  59.7132
  1.337  60.0132
  1.333  59.3132
  1.329  59.3132
  1.325  59.0132
  1.321  59.0132
  1.317  59.2132
  1.313  59.2132
  1.309  59.0132
  1.305  59.2132
  1.301  59.0132
  1.297  59.2132
  1.293  59.2132
  1.289  59.2132
  1.285  59.2132
  1.281  59.0132
  1.277  59.0132
  1.273  59.0132
  1.269  58.9132
  1.265  58.8132
  1.261  58.8132
  1.257  58.7132
  1.253  58.7132
  1.249  58.6132
  1.245  58.8132
  1.241  59.4132
  1.237  59.5132
  1.233  59.5132
  1.229  59.4132
  1.225  59.4132
  1.221  59.3132
  1.217  59.0132
  1.213  58.8132
  1.209  58.9132
  1.205  59.0132
  1.201  59.0132
  1.197  59.0132
  1.193  59.0132
  1.189  59.0132
  1.185  59.0132
  1.181  59.0132
  1.177  59.0132
  1.173  59.3132
  1.169  59.3132
  1.165  59.3132
  1.161  59.3132
  1.157  59.2132
  1.153  58.9132
  1.149  58.8132
  1.145  58.8132
  1.141  58.6132
  1.137  58.4132
  1.133  58.8132
  1.129  58.9132
  1.125  58.7132
  1.121  58.8132
  1.117  58.7132
  1.113  58.4132
  1.109  58.4132
  1.105  58.8132
  1.101  58.7132
  1.097  59.3132
  1.093  59.2132
  1.089  58.9132
  1.085  58.7132
  1.081  58.9132
  1.077  58.9132
  1.073  58.7132
  1.069  59.2132
  1.065  59.4132
  1.061  59.4132
  1.057  59.3132
  1.053  59.2132
  1.049  59.0132
  1.045  58.9132
  1.041  58.7132
  1.037  58.6132
  1.033  58.9132
  1.029  59.2132
  1.025  58.9132
  1.021  59.0132
  1.017  59.4132
  1.013  59.3132
  1.009  59.4132
  1.005  59.4132
  1.001  59.4132
  0.997  59.2132
  0.993  59.5132
  0.989  59.5132
  0.985  59.2132
  0.981  59.0132
  0.977  58.9132
  0.973  58.8132
  0.969  58.6132
  0.965  59.0132
  0.961  59.0132
  0.957  58.7132
  0.953  58.6132
  0.949  58.7132
  0.945  58.9132
  0.941  58.7132
  0.937  58.4132
  0.933  58.3132
  0.929  58.3132
  0.925  58.3132
  0.921  58.6132
  0.917  58.3132
  0.913  58.3132
  0.909  58.4132
  0.905  58.3132
  0.901  58.3132
  0.897  58.2132
  0.893  57.8132
  0.889  57.9132
  0.885  57.9132
  0.881  58.1132
  0.877  58.3132
  0.873  58.1132
  0.869  58.2132
  0.865  57.9132
  0.861  57.9132
  0.857  58.1132
  0.853  58.4132
  0.849  58.4132
  0.845  58.4132
  0.841  58.3132
  0.837  58.7132
  0.833  58.4132
  0.829  58.6132
  0.825  58.7132
  0.821  58.7132
  0.817  58.9132
  0.813  58.8132
  0.809  59.0132
  0.805  58.9132
  0.804  59.4132
  0.803  59.4132
  0.802  59.4132
  0.801  59.7132
  0.800  59.5132
  0.799  59.4132
  0.798  59.0132
  0.797  59.4132
  0.796  59.4132
  0.795  59.3132
  0.794  59.2132
  0.793  58.9132
  0.792  59.5132
  0.791  59.7132
  0.790  59.8132
  0.789  59.4132
  0.788  59.3132
  0.787  59.3132
  0.786  59.4132
  0.785  59.4132
  0.784  59.2132
  0.783  59.0132
  0.782  59.0132
  0.781  59.3132
  0.780  59.2132
  0.779  59.7132
  0.778  59.4132
  0.777  59.7132
  0.776  59.7132
  0.775  59.4132
  0.774  59.5132
  0.773  59.4132
  0.772  59.7132
  0.771  59.7132
  0.770  59.5132
  0.769  59.7132
  0.768  59.3132
  0.767  59.3132
  0.766  59.4132
  0.765  59.4132
  0.764  59.4132
  0.763  59.3132
  0.762  58.8132
  0.761  58.8132
  0.760  59.0132
  0.759  59.3132
  0.758  59.3132
  0.757  59.4132
  0.756  59.2132
  0.755  59.0132
  0.754  58.9132
  0.753  59.2132
  0.752  59.3132
  0.751  58.9132
  0.750  58.3132
  0.749  58.6132
  0.748  58.7132
  0.747  58.4132
  0.746  58.8132
  0.745  58.8132
  0.744  59.2132
  0.743  59.2132
  0.742  59.0132
  0.741  58.4132
  0.740  58.4132
  0.739  58.8132
  0.738  58.8132
  0.737  58.9132
  0.736  58.9132
  0.735  58.9132
  0.734  59.0132
  0.733  58.4132
  0.732  58.6132
  0.731  58.6132
  0.730  58.4132
  0.729  58.6132
  0.728  58.6132
  0.727  58.6132
  0.726  58.6132
  0.725  58.6132
  0.724  58.3132
  0.723  58.7132
  0.722  58.4132
  0.721  58.6132
  0.720  58.3132
  0.719  58.3132
  0.718  58.4132
  0.717  58.4132
  0.716  57.8132
  0.715  57.6132
  0.714  57.9132
  0.713  58.2132
  0.712  58.2132
  0.711  58.1132
  0.710  58.1132
  0.709  57.6132
  0.708  57.3132
  0.707  57.7132
  0.706  57.3132
  0.705  57.3132
  0.704  57.3132
  0.703  56.6132
  0.702  56.8132
  0.701  57.2132
  0.700  57.6132
  0.699  57.3132
  0.698  57.1132
  0.697  57.2132
  0.696  57.2132
  0.695  57.7132
  0.694  57.5132
  0.693  57.0132
  0.692  56.5132
  0.691  56.6132
  0.690  56.7132
  0.689  56.7132
  0.688  56.5132
  0.687  56.6132
  0.686  56.5132
  0.685  56.5132
  0.684  56.5132
  0.683  56.5132
  0.682  56.4132
  0.681  56.4132
  0.680  56.6132
  0.679  56.6132
  0.678  56.7132
  0.677  56.7132
  0.676  56.4132
  0.675  56.2132
  0.674  56.2132
  0.673  56.2132
  0.672  56.4132
  0.671  56.2132
  0.670  56.1132
  0.669  56.0132
  0.668  56.1132
  0.667  56.1132
  0.666  56.1132
  0.665  56.2132
  0.664  56.2132
  0.663  55.9132
  0.662  56.0132
  0.661  56.0132
  0.660  56.1132
  0.659  56.2132
  0.658  56.1132
  0.657  56.2132
  0.656  56.0132
  0.655  56.0132
  0.654  55.9132
  0.653  55.7132
  0.652  55.7132
  0.651  55.9132
  0.650  56.0132
  0.649  56.1132
  0.648  55.9132
  0.647  55.6132
  0.646  55.6132
  0.645  55.9132
  0.644  55.7132
  0.643  55.9132
  0.642  55.9132
  0.641  55.9132
  0.640  55.7132
  0.639  55.7132
  0.638  55.9132
  0.637  56.0132
  0.636  55.6132
  0.635  55.4132
  0.634  55.4132
  0.633  55.4132
  0.632  55.3132
  0.631  55.4132
  0.630  55.4132
  0.629  55.5132
  0.628  55.3132
  0.627  55.1132
  0.626  55.1132
  0.625  55.1132
  0.624  54.9132
  0.623  54.9132
  0.622  55.0132
  0.621  55.1132
  0.620  55.0132
  0.619  55.1132
  0.618  55.1132
  0.617  55.3132
  0.616  55.1132
  0.615  55.0132
  0.614  55.0132
  0.613  55.1132
  0.612  55.0132
  0.611  55.0132
  0.610  54.9132
  0.609  54.9132
  0.608  54.8132
  0.607  54.8132
  0.606  54.6132
  0.605  54.8132
  0.604  55.1132
  0.603  55.0132
  0.602  54.5132
  0.601  54.4132
  0.600  54.3132
  0.599  54.5132
  0.598  54.4132
  0.597  54.0132
  0.596  53.9132
  0.595  53.8132
  0.594  54.2132
  0.593  54.2132
  0.592  54.4132
  0.591  54.0132
  0.590  54.0132
  0.589  53.8132
  0.588  53.9132
  0.587  54.0132
  0.586  53.9132
  0.585  53.9132
  0.584  53.9132
  0.583  53.8132
  0.582  53.9132
  0.581  53.8132
  0.580  53.7132
  0.579  53.8132
  0.578  53.4132
  0.577  53.3132
  0.576  53.3132
  0.575  53.4132
  0.574  53.4132
  0.573  53.5132
  0.572  53.3132
  0.571  53.2132
  0.570  53.3132
  0.569  53.3132
  0.568  52.9132
  0.567  52.8132
  0.566  52.6132
  0.565  52.6132
  0.564  52.3132
  0.563  53.5132
  0.562  53.3132
  0.561  53.3132
  0.560  53.1132
  0.559  52.7132
  0.558  52.6132
  0.557  52.4132
  0.556  52.1132
  0.555  52.2132
  0.554  52.0132
  0.553  51.6132
  0.552  51.1132
  0.551  51.6132
  0.550  51.5132
  0.549  51.7132
  0.548  51.3132
  0.547  51.1132
  0.546  51.2132
  0.545  51.2132
  0.544  50.6132
  0.543  50.2132
  0.542  50.1132
  0.541  50.4132
  0.540  49.9132
  0.539  49.9132
  0.538  50.0132
  0.537  49.8132
  0.536  49.6132
  0.535  49.4132
  0.534  49.1132
  0.533  48.9132
  0.532  48.8132
  0.531  48.9132
  0.530  48.7132
  0.529  48.4132
  0.528  48.2132
  0.527  48.4132
  0.526  48.4132
  0.525  48.4132
  0.524  48.2132
  0.523  48.1132
  0.522  47.6132
  0.521  47.4132
  0.520  47.2132
  0.519  47.2132
  0.518  47.3132
  0.517  46.7132
  0.516  46.5132
  0.515  46.3132
  0.514  46.3132
  0.513  46.5132
  0.512  46.3132
  0.511  46.2132
  0.510  46.0132
  0.509  45.6132
  0.508  45.6132
  0.507  45.6132
  0.506  45.6132
  0.505  45.2132
  0.504  45.1132
  0.503  45.2132
  0.502  45.2132
  0.501  45.2132
  0.500  45.0132
  0.499  44.5132
  0.498  44.3132
  0.497  44.1132
  0.496  44.0132
  0.495  44.3132
  0.494  44.0132
  0.493  44.3132
  0.492  44.0132
  0.491  43.8132
  0.490  43.7132
  0.489  43.4132
  0.488  43.7132
  0.487  43.7132
  0.486  43.5132
  0.485  43.5132
  0.484  43.3132
  0.483  43.0132
  0.482  42.9132
  0.481  43.0132
  0.480  43.2132
  0.479  43.0132
  0.478  43.0132
  0.477  42.8132
  0.476  42.8132
  0.475  42.9132
  0.474  42.9132
  0.473  42.8132
  0.472  42.8132
  0.471  42.7132
  0.470  42.4132
  0.469  42.4132
  0.468  42.3132
  0.467  42.3132
  0.466  42.3132
  0.465  42.2132
  0.464  41.6132
  0.463  41.6132
  0.462  41.3132
  0.461  41.2132
  0.460  41.0132
  0.459  40.7132
  0.458  40.7132
  0.457  40.5132
  0.456  40.2132
  0.455  40.2132
  0.454  40.4132
  0.453  40.7132
  0.452  40.6132
  0.451  40.5132
  0.450  40.2132
  0.449  40.1132
  0.448  40.2132
  0.447  39.9132
  0.446  39.7132
  0.445  39.5132
  0.444  39.3132
  0.443  39.3132
  0.442  39.1132
  0.441  39.1132
  0.440  39.3132
  0.439  38.9132
  0.438  38.6132
  0.437  38.6132
  0.436  38.4132
  0.435  38.2132
  0.434  37.9132
  0.433  37.8132
  0.432  37.9132
  0.431  37.8132
  0.430  37.6132
  0.429  37.8132
  0.428  37.7132
  0.427  37.4132
  0.426  37.1132
  0.425  36.8132
  0.424  36.9132
  0.423  36.8132
  0.422  36.7132
  0.421  36.7132
  0.420  36.8132
  0.419  36.7132
  0.418  36.3132
  0.417  36.5132
  0.416  36.5132
  0.415  36.3132
  0.414  36.1132
  0.413  36.1132
  0.412  36.0132
  0.411  36.0132
  0.410  36.2132
  0.409  35.8132
  0.408  36.0132
  0.407  35.7132
  0.406  35.7132
  0.405  35.4132
