Name: Basalt
Type: Rock
Class: Igneous
Subclass: Mafic
Particle Size: Whole rock chips
Sample No.: Me28
Owner: Lawrence Rowan, USGS Reston
Wavelength range: 0.40 - 14.05 um
Origin: K. Ata, Middle East

Description: Basalt, cut surface, base fragment of basalt vessel





Measurement: Directional Hemispherical Reflectance
First Column: X
Second Column: Y
X Units: Wavelength (micrometers)
Y Units: Reflectance (percent)
First X Value: 14.05105
Last X Value: 0.40000
Number of X Values: 2231
Additional Information: me28a.txt

 14.051   3.1724
 14.013   3.1724
 13.975   3.2651
 13.938   3.0488
 13.900   2.9664
 13.863   2.8634
 13.826   3.1724
 13.790   3.1003
 13.753   3.1106
 13.717   3.0282
 13.680   3.1930
 13.644   3.2033
 13.609   3.2754
 13.573   3.2136
 13.538   3.2754
 13.502   3.2239
 13.467   3.3166
 13.432   3.2651
 13.398   3.2651
 13.363   3.2033
 13.329   3.2651
 13.295   3.2445
 13.261   3.3269
 13.227   3.3269
 13.193   3.3681
 13.160   3.3269
 13.126   3.4093
 13.093   3.3063
 13.060   3.3269
 13.027   3.3681
 12.995   3.4505
 12.962   3.3681
 12.930   3.2754
 12.898   3.2960
 12.866   3.4711
 12.834   3.4505
 12.802   3.4299
 12.771   3.3578
 12.739   3.5432
 12.708   3.5432
 12.677   3.5329
 12.646   3.4814
 12.616   3.5741
 12.585   3.6256
 12.554   3.7286
 12.524   3.6462
 12.494   3.6668
 12.464   3.6977
 12.434   3.9140
 12.404   3.9243
 12.375   3.9964
 12.345   4.0067
 12.316   4.1715
 12.287   4.2436
 12.258   4.3672
 12.229   4.4805
 12.200   4.5835
 12.171   4.5629
 12.143   4.7586
 12.115   4.7586
 12.086   4.8204
 12.058   4.8410
 12.030   5.0161
 12.002   5.1397
 11.975   5.2015
 11.947   5.1809
 11.920   5.2839
 11.892   5.3354
 11.865   5.3972
 11.838   5.4899
 11.811   5.6547
 11.784   5.6959
 11.757   5.8607
 11.731   5.9534
 11.704   6.1182
 11.678   6.2521
 11.652   6.4890
 11.626   6.5302
 11.600   6.5817
 11.574   6.6229
 11.548   6.8289
 11.522   7.0143
 11.497   7.3336
 11.471   7.3233
 11.446   7.3542
 11.421   7.3954
 11.396   7.5499
 11.371   7.7662
 11.346   8.0237
 11.321   8.0443
 11.297   8.1885
 11.272   8.3121
 11.248   8.4254
 11.223   8.4769
 11.199   8.6417
 11.175   8.7550
 11.151   8.7859
 11.127   8.7241
 11.103   8.8477
 11.079   8.9198
 11.056   8.9919
 11.032   9.1052
 11.009   9.1670
 10.985   9.1155
 10.962   9.1979
 10.939   9.2288
 10.916   9.3524
 10.893   9.3421
 10.870   9.3215
 10.848   9.2803
 10.825   9.3730
 10.802   9.3730
 10.780   9.3318
 10.758   9.2494
 10.735   9.3112
 10.713   9.2391
 10.691   9.1361
 10.669   9.0022
 10.647   8.9816
 10.625   8.8992
 10.604   8.8580
 10.582   8.7859
 10.560   8.7550
 10.539   8.6314
 10.518   8.6314
 10.496   8.6108
 10.475   8.6623
 10.454   8.7550
 10.433   8.9095
 10.412   8.8374
 10.391   8.8477
 10.370   8.8580
 10.350   8.8477
 10.329   8.7241
 10.309   8.6726
 10.288   8.5799
 10.268   8.5593
 10.247   8.5181
 10.227   8.5490
 10.207   8.5078
 10.187   8.4563
 10.167   8.3121
 10.147   8.2915
 10.127   8.3018
 10.108   8.3842
 10.088   8.4151
 10.068   8.4975
 10.049   8.4048
 10.029   8.5181
 10.010   8.6314
  9.991   8.7241
  9.972   8.7138
  9.952   8.7035
  9.933   8.6726
  9.914   8.7344
  9.895   8.7138
  9.877   8.7756
  9.858   8.7344
  9.839   8.7859
  9.821   8.7859
  9.802   8.7653
  9.783   8.6829
  9.765   8.7859
  9.747   8.7756
  9.728   8.7653
  9.710   8.6932
  9.692   8.6417
  9.674   8.5902
  9.656   8.5490
  9.638   8.4872
  9.620   8.5181
  9.602   8.4975
  9.585   8.5696
  9.567   8.4357
  9.549   8.3533
  9.532   8.2915
  9.514   8.3121
  9.497   8.1679
  9.479   8.0340
  9.462   8.0443
  9.445   8.1679
  9.428   8.0649
  9.411   7.9928
  9.394   7.9310
  9.377   7.9516
  9.360   7.8280
  9.343   7.8280
  9.326   7.7662
  9.309   7.7250
  9.293   7.6735
  9.276   7.6941
  9.259   7.5602
  9.243   7.4984
  9.226   7.5190
  9.210   7.4778
  9.194   7.3645
  9.178   7.4881
  9.161   7.5190
  9.145   7.5087
  9.129   7.4984
  9.113   7.6014
  9.097   7.5087
  9.081   7.5087
  9.065   7.5293
  9.049   7.5705
  9.034   7.5396
  9.018   7.5499
  9.002   7.4675
  8.987   7.4984
  8.971   7.4572
  8.956   7.4263
  8.940   7.3542
  8.925   7.2924
  8.909   7.1070
  8.894   7.1379
  8.879   7.1070
  8.864   7.0143
  8.849   6.7774
  8.834   6.7053
  8.819   6.5302
  8.804   6.4581
  8.789   6.3139
  8.774   6.2418
  8.759   6.1388
  8.744   6.0255
  8.730   5.9740
  8.715   6.0358
  8.700   5.9843
  8.686   6.0049
  8.671   5.9431
  8.657   5.8916
  8.642   5.8092
  8.628   5.7474
  8.614   5.7062
  8.599   5.7371
  8.585   5.7062
  8.571   5.6959
  8.557   5.6753
  8.543   5.6444
  8.529   5.5826
  8.515   5.6135
  8.501   5.5414
  8.487   5.5826
  8.473   5.5517
  8.459   5.5723
  8.445   5.5002
  8.431   5.5105
  8.418   5.4899
  8.404   5.4178
  8.391   5.2942
  8.377   5.2736
  8.363   5.1294
  8.350   4.9955
  8.337   4.8307
  8.323   4.7483
  8.310   4.5938
  8.297   4.3672
  8.283   4.1509
  8.270   3.9861
  8.257   3.6977
  8.244   3.5741
  8.231   3.3166
  8.218   3.0488
  8.205   2.8325
  8.192   2.7089
  8.179   2.5235
  8.166   2.3793
  8.153   2.2557
  8.140   2.1424
  8.128   2.0394
  8.115   1.9776
  8.102   1.7922
  8.090   1.7613
  8.077   1.7098
  8.064   1.6789
  8.052   1.6789
  8.039   1.7098
  8.027   1.6274
  8.015   1.6068
  8.002   1.5965
  7.990   1.5862
  7.978   1.5656
  7.965   1.5759
  7.953   1.5450
  7.941   1.5656
  7.929   1.5862
  7.917   1.6171
  7.905   1.5141
  7.893   1.5450
  7.881   1.5965
  7.869   1.6068
  7.857   1.5759
  7.845   1.6274
  7.833   1.5244
  7.821   1.4832
  7.809   1.5553
  7.798   1.6068
  7.786   1.6480
  7.774   1.7201
  7.763   1.6274
  7.751   1.6068
  7.739   1.6583
  7.728   1.7407
  7.716   1.7407
  7.705   1.7304
  7.694   1.6892
  7.682   1.6892
  7.671   1.6995
  7.659   1.7510
  7.648   1.7201
  7.637   1.7304
  7.626   1.7819
  7.614   1.8231
  7.603   1.7407
  7.592   1.7613
  7.581   1.7922
  7.570   1.8643
  7.559   1.8128
  7.548   1.8849
  7.537   1.9673
  7.526   1.9055
  7.515   1.8746
  7.504   1.9982
  7.493   1.9982
  7.483   1.9982
  7.472   2.0394
  7.461   2.0600
  7.450   2.0188
  7.440   2.0291
  7.429   1.9879
  7.418   2.0600
  7.408   2.1218
  7.397   2.1218
  7.387   2.0497
  7.376   2.1012
  7.366   2.1115
  7.355   2.0806
  7.345   2.1218
  7.334   2.2248
  7.324   2.1939
  7.314   2.2145
  7.303   2.2557
  7.293   2.2969
  7.283   2.2557
  7.273   2.2763
  7.263   2.1939
  7.252   2.1836
  7.242   2.2454
  7.232   2.3381
  7.222   2.2866
  7.212   2.2660
  7.202   2.2763
  7.192   2.3175
  7.182   2.2660
  7.172   2.2351
  7.162   2.2660
  7.152   2.3587
  7.143   2.3587
  7.133   2.4205
  7.123   2.4411
  7.113   2.4926
  7.103   2.4720
  7.094   2.4514
  7.084   2.4411
  7.074   2.5029
  7.065   2.4926
  7.055   2.4823
  7.046   2.4617
  7.036   2.4926
  7.026   2.4720
  7.017   2.5235
  7.007   2.5235
  6.998   2.5338
  6.989   2.5338
  6.979   2.6059
  6.970   2.6059
  6.960   2.5750
  6.951   2.5338
  6.942   2.5441
  6.932   2.5956
  6.923   2.6677
  6.914   2.5956
  6.905   2.5235
  6.896   2.5132
  6.886   2.6162
  6.877   2.6677
  6.868   2.6780
  6.859   2.6986
  6.850   2.7089
  6.841   2.6883
  6.832   2.7089
  6.823   2.6780
  6.814   2.7295
  6.805   2.7295
  6.796   2.7707
  6.787   2.7501
  6.778   2.7089
  6.770   2.6574
  6.761   2.6368
  6.752   2.6574
  6.743   2.7501
  6.734   2.7604
  6.726   2.7810
  6.717   2.8119
  6.708   2.8428
  6.700   2.8222
  6.691   2.8016
  6.682   2.7707
  6.674   2.8016
  6.665   2.7913
  6.657   2.8222
  6.648   2.8634
  6.640   2.8737
  6.631   2.8016
  6.623   2.8222
  6.614   2.9046
  6.606   2.9458
  6.597   2.8943
  6.589   2.8737
  6.581   2.9046
  6.572   2.8943
  6.564   2.8119
  6.556   2.8737
  6.547   2.9252
  6.539   2.9252
  6.531   2.9046
  6.523   2.9561
  6.514   2.9252
  6.506   2.9046
  6.498   2.9355
  6.490   2.9767
  6.482   2.9355
  6.474   2.9046
  6.466   2.9149
  6.458   2.9458
  6.450   2.9149
  6.442   2.9664
  6.434   2.9252
  6.426   2.9149
  6.418   2.9870
  6.410   3.0591
  6.402   3.0385
  6.394   2.9767
  6.386   2.9252
  6.378   2.9561
  6.370   2.9561
  6.363   2.9561
  6.355   2.9252
  6.347   2.9355
  6.339   2.9458
  6.332   2.9149
  6.324   2.9149
  6.316   2.9458
  6.308   2.9561
  6.301   2.9561
  6.293   2.8943
  6.286   2.9149
  6.278   3.0076
  6.270   3.0385
  6.263   2.9973
  6.255   2.9664
  6.248   2.9252
  6.240   2.9252
  6.233   2.9252
  6.225   2.9561
  6.218   2.9252
  6.210   2.9458
  6.203   2.9355
  6.195   2.9870
  6.188   2.9870
  6.181   2.9664
  6.173   2.8840
  6.166   2.8428
  6.159   2.8531
  6.151   2.8634
  6.144   2.8531
  6.137   2.8634
  6.130   2.8119
  6.122   2.7913
  6.115   2.7913
  6.108   2.8325
  6.101   2.8119
  6.094   2.8016
  6.086   2.7810
  6.079   2.8325
  6.072   2.8943
  6.065   2.9561
  6.058   2.8943
  6.051   2.8737
  6.044   2.9149
  6.037   2.9870
  6.030   2.9870
  6.023   2.9664
  6.016   2.9458
  6.009   2.9355
  6.002   2.9252
  5.995   2.9561
  5.988   2.9973
  5.981   3.0076
  5.974   3.0179
  5.967   3.0797
  5.960   3.0900
  5.954   3.0797
  5.947   3.1106
  5.940   3.1827
  5.933   3.2033
  5.926   3.1724
  5.920   3.1827
  5.913   3.2548
  5.906   3.2960
  5.899   3.3166
  5.893   3.3269
  5.886   3.4196
  5.879   3.4402
  5.873   3.4402
  5.866   3.4505
  5.859   3.4402
  5.853   3.4093
  5.846   3.4814
  5.840   3.5123
  5.833   3.5535
  5.827   3.5638
  5.820   3.5329
  5.813   3.6153
  5.807   3.5947
  5.800   3.5329
  5.794   3.5329
  5.788   3.5226
  5.781   3.5947
  5.775   3.6771
  5.768   3.7080
  5.762   3.7286
  5.755   3.7080
  5.749   3.6565
  5.743   3.6668
  5.736   3.6771
  5.730   3.6874
  5.724   3.6771
  5.717   3.6874
  5.711   3.6874
  5.705   3.7286
  5.698   3.7801
  5.692   3.8213
  5.686   3.8213
  5.680   3.8522
  5.674   3.8934
  5.667   3.8625
  5.661   3.8007
  5.655   3.8316
  5.649   3.8831
  5.643   3.8934
  5.637   3.8831
  5.630   3.9037
  5.624   3.9140
  5.618   3.9037
  5.612   3.8728
  5.606   3.9243
  5.600   3.8934
  5.594   3.9037
  5.588   3.9552
  5.582   3.9346
  5.576   3.9037
  5.570   3.9552
  5.564   3.9655
  5.558   3.9758
  5.552   3.9964
  5.546   4.0170
  5.540   4.0273
  5.534   4.0479
  5.528   4.0788
  5.523   4.0788
  5.517   4.0891
  5.511   4.0994
  5.505   4.0994
  5.499   4.1303
  5.493   4.1509
  5.487   4.1303
  5.482   4.1406
  5.476   4.1921
  5.470   4.1715
  5.464   4.1921
  5.459   4.2436
  5.453   4.2539
  5.447   4.2333
  5.441   4.2539
  5.436   4.2333
  5.430   4.2024
  5.424   4.2539
  5.419   4.3363
  5.413   4.3466
  5.407   4.3157
  5.402   4.3054
  5.396   4.3054
  5.390   4.3054
  5.385   4.3466
  5.379   4.3775
  5.374   4.4084
  5.368   4.4290
  5.363   4.4393
  5.357   4.4290
  5.352   4.4702
  5.346   4.4805
  5.341   4.4599
  5.335   4.4290
  5.330   4.4496
  5.324   4.5114
  5.319   4.5011
  5.313   4.5011
  5.308   4.5114
  5.302   4.5320
  5.297   4.5629
  5.291   4.5217
  5.286   4.5423
  5.281   4.5732
  5.275   4.5835
  5.270   4.5835
  5.265   4.6453
  5.259   4.7071
  5.254   4.7174
  5.249   4.6659
  5.243   4.6762
  5.238   4.7277
  5.233   4.7277
  5.227   4.7483
  5.222   4.7586
  5.217   4.7380
  5.212   4.7174
  5.206   4.7380
  5.201   4.7895
  5.196   4.7998
  5.191   4.8307
  5.186   4.8616
  5.180   4.9028
  5.175   4.9234
  5.170   4.9234
  5.165   4.9131
  5.160   4.9131
  5.155   4.9852
  5.150   5.0573
  5.145   5.0470
  5.139   5.0161
  5.134   5.0264
  5.129   5.0161
  5.124   5.0264
  5.119   5.0161
  5.114   4.9852
  5.109   5.0367
  5.104   5.1191
  5.099   5.1500
  5.094   5.1706
  5.089   5.1603
  5.084   5.1397
  5.079   5.1912
  5.074   5.1706
  5.069   5.1809
  5.064   5.2427
  5.059   5.2633
  5.054   5.3148
  5.049   5.3663
  5.044   5.3560
  5.040   5.3354
  5.035   5.3457
  5.030   5.3560
  5.025   5.3766
  5.020   5.3972
  5.015   5.4075
  5.010   5.3766
  5.005   5.3972
  5.001   5.4590
  4.996   5.4899
  4.991   5.4693
  4.986   5.4796
  4.981   5.5208
  4.977   5.5311
  4.972   5.5517
  4.967   5.5826
  4.962   5.6135
  4.958   5.5929
  4.953   5.5929
  4.948   5.6032
  4.943   5.6547
  4.939   5.7165
  4.934   5.7268
  4.929   5.7165
  4.925   5.6959
  4.920   5.7577
  4.915   5.7886
  4.911   5.7474
  4.906   5.7989
  4.901   5.8504
  4.897   5.8298
  4.892   5.7886
  4.888   5.8298
  4.883   5.9019
  4.878   5.9225
  4.874   5.8813
  4.869   5.8195
  4.865   5.8504
  4.860   5.9225
  4.856   5.9431
  4.851   5.9431
  4.846   5.9843
  4.842   6.0770
  4.837   6.1285
  4.833   6.0770
  4.828   6.0049
  4.824   5.9946
  4.819   6.0358
  4.815   6.0770
  4.810   6.0770
  4.806   6.0667
  4.802   6.1388
  4.797   6.1285
  4.793   6.1182
  4.788   6.1800
  4.784   6.1903
  4.779   6.1285
  4.775   6.1388
  4.771   6.2521
  4.766   6.2727
  4.762   6.2830
  4.758   6.3036
  4.753   6.3345
  4.749   6.3036
  4.744   6.2933
  4.740   6.3242
  4.736   6.3448
  4.731   6.3654
  4.727   6.3757
  4.723   6.3654
  4.719   6.4066
  4.714   6.4581
  4.710   6.4684
  4.706   6.4375
  4.701   6.4478
  4.697   6.4787
  4.693   6.5302
  4.689   6.5920
  4.684   6.5714
  4.680   6.5611
  4.676   6.5405
  4.672   6.5714
  4.668   6.6538
  4.663   6.6538
  4.659   6.6332
  4.655   6.6950
  4.651   6.7568
  4.647   6.7568
  4.643   6.7980
  4.638   6.7980
  4.634   6.8083
  4.630   6.8083
  4.626   6.8598
  4.622   6.9113
  4.618   6.9319
  4.614   6.9010
  4.610   6.9216
  4.605   6.9319
  4.601   6.9731
  4.597   7.0246
  4.593   7.0349
  4.589   7.0864
  4.585   7.1276
  4.581   7.1379
  4.577   7.0864
  4.573   7.1070
  4.569   7.2203
  4.565   7.3027
  4.561   7.2924
  4.557   7.3027
  4.553   7.2924
  4.549   7.2924
  4.545   7.3130
  4.541   7.3439
  4.537   7.3542
  4.533   7.3542
  4.529   7.4366
  4.525   7.4675
  4.521   7.4469
  4.517   7.4469
  4.513   7.5087
  4.509   7.5808
  4.505   7.6117
  4.502   7.7250
  4.498   7.7044
  4.494   7.6529
  4.490   7.6735
  4.486   7.7147
  4.482   7.6838
  4.478   7.6735
  4.474   7.6838
  4.470   7.7044
  4.467   7.7353
  4.463   7.7559
  4.459   7.8074
  4.455   7.8177
  4.451   7.8692
  4.447   7.9001
  4.444   7.9207
  4.440   7.9104
  4.436   7.8589
  4.432   7.9516
  4.428   8.0134
  4.425   8.0134
  4.421   8.0649
  4.417   8.0649
  4.413   8.0237
  4.410   8.1164
  4.406   8.1164
  4.402   8.0752
  4.398   8.1782
  4.395   8.2606
  4.391   8.2194
  4.387   8.2503
  4.384   8.2812
  4.380   8.2400
  4.376   8.2915
  4.372   8.3842
  4.369   8.3533
  4.365   8.3945
  4.361   8.3842
  4.358   8.3945
  4.354   8.3327
  4.350   8.3430
  4.347   8.4460
  4.343   8.4254
  4.340   8.4254
  4.336   8.4975
  4.332   8.5284
  4.329   8.5799
  4.325   8.5902
  4.321   8.6314
  4.318   8.6726
  4.314   8.7241
  4.311   8.7241
  4.307   8.7653
  4.304   8.7653
  4.300   8.7344
  4.296   8.7550
  4.293   8.8168
  4.289   8.8786
  4.286   8.9198
  4.282   8.9713
  4.279   8.9919
  4.275   8.9919
  4.272   8.9919
  4.268   9.0022
  4.265   8.9610
  4.261   8.9198
  4.258   9.0125
  4.254   9.0125
  4.251   9.0228
  4.247   9.0434
  4.244   9.0743
  4.240   9.1979
  4.237   9.2906
  4.233   9.3009
  4.230   9.3524
  4.226   9.3524
  4.223   9.3009
  4.219   9.2803
  4.216   9.3112
  4.213   9.2597
  4.209   9.2082
  4.206   9.2494
  4.202   9.3009
  4.199   9.3112
  4.196   9.3421
  4.192   9.3730
  4.189   9.3627
  4.185   9.3215
  4.182   9.2906
  4.179   9.3112
  4.175   9.3627
  4.172   9.3936
  4.169   9.4554
  4.165   9.4039
  4.162   9.3730
  4.159   9.3833
  4.155   9.4760
  4.152   9.5378
  4.149   9.5790
  4.145   9.4863
  4.142   9.4245
  4.139   9.4760
  4.135   9.5275
  4.132   9.5481
  4.129   9.6099
  4.126   9.6099
  4.122   9.5996
  4.119   9.5172
  4.116   9.5584
  4.112   9.5996
  4.109   9.6614
  4.106   9.6408
  4.103   9.6614
  4.099   9.6305
  4.096   9.6511
  4.093   9.7026
  4.090   9.7129
  4.086   9.6923
  4.083   9.7335
  4.080   9.8159
  4.077   9.9189
  4.074   9.9189
  4.070   9.8365
  4.067   9.7953
  4.064   9.8365
  4.061   9.8056
  4.058   9.8262
  4.055   9.8983
  4.051   9.9807
  4.048   9.9395
  4.045   9.8880
  4.042   9.9910
  4.039   9.9910
  4.036   9.9807
  4.032  10.0116
  4.029   9.9704
  4.026   9.9601
  4.023  10.0425
  4.020  10.0940
  4.017  10.0734
  4.014  10.0322
  4.011   9.9910
  4.008   9.9498
  4.004   9.9498
  4.001  10.0219
  3.998  10.0322
  3.995  10.0219
  3.992  10.0219
  3.989  10.0528
  3.986   9.9807
  3.983   9.9910
  3.980  10.0528
  3.977  10.0837
  3.974  10.0219
  3.971  10.0013
  3.968  10.0528
  3.965  10.1455
  3.962  10.2073
  3.959  10.2279
  3.956  10.2073
  3.953  10.1661
  3.950  10.1455
  3.947  10.2382
  3.944  10.1867
  3.941  10.2176
  3.938  10.2588
  3.935  10.2382
  3.932  10.2794
  3.929  10.2897
  3.926  10.1764
  3.923  10.2382
  3.920  10.2485
  3.917  10.1661
  3.914  10.1867
  3.911  10.3618
  3.908  10.3515
  3.905  10.2485
  3.902  10.2794
  3.899  10.4030
  3.896  10.3515
  3.893  10.3206
  3.890  10.3206
  3.887  10.3309
  3.884  10.4545
  3.882  10.5266
  3.879  10.3618
  3.876  10.3515
  3.873  10.3206
  3.870  10.2279
  3.867  10.2485
  3.864  10.4339
  3.861  10.4545
  3.858  10.3927
  3.856  10.3927
  3.853  10.4030
  3.850  10.3824
  3.847  10.3515
  3.844  10.3206
  3.841  10.4339
  3.838  10.3824
  3.836  10.3824
  3.833  10.4030
  3.830  10.4236
  3.827  10.4133
  3.824  10.4957
  3.822  10.5472
  3.819  10.5472
  3.816  10.4751
  3.813  10.4545
  3.810  10.4648
  3.807  10.5266
  3.805  10.5472
  3.802  10.5369
  3.799  10.4442
  3.796  10.4442
  3.794  10.4339
  3.791  10.4442
  3.788  10.5266
  3.785  10.5369
  3.782  10.4648
  3.780  10.4957
  3.777  10.4854
  3.774  10.4854
  3.771  10.5060
  3.769  10.5060
  3.766  10.4236
  3.763  10.3721
  3.761  10.4442
  3.758  10.5060
  3.755  10.4545
  3.752  10.3927
  3.750  10.3824
  3.747  10.4339
  3.744  10.5060
  3.742  10.4442
  3.739  10.3309
  3.736  10.3000
  3.733  10.2897
  3.731  10.3309
  3.728  10.3515
  3.725  10.4339
  3.723  10.4030
  3.720  10.3412
  3.717  10.3000
  3.715  10.2691
  3.712  10.2794
  3.709  10.3309
  3.707  10.3103
  3.704  10.3309
  3.702  10.3103
  3.699  10.2176
  3.696  10.1455
  3.694  10.1249
  3.691  10.1867
  3.688  10.3206
  3.686  10.3000
  3.683  10.1867
  3.680  10.1146
  3.678  10.1970
  3.675  10.1867
  3.673  10.1352
  3.670  10.1558
  3.667  10.1970
  3.665  10.2382
  3.662  10.1764
  3.660  10.0940
  3.657  10.1249
  3.655  10.0940
  3.652  10.0631
  3.649  10.0219
  3.647  10.0322
  3.644  10.0425
  3.642  10.0940
  3.639  10.0734
  3.637  10.0734
  3.634  10.0425
  3.632   9.9807
  3.629   9.9601
  3.626  10.0013
  3.624  10.0322
  3.621  10.0013
  3.619   9.9807
  3.616  10.0013
  3.614  10.0013
  3.611   9.9601
  3.609   9.9292
  3.606   9.9189
  3.604   9.8365
  3.601   9.8056
  3.599   9.7541
  3.596   9.8159
  3.594   9.7747
  3.591   9.7644
  3.589   9.7850
  3.586   9.7747
  3.584   9.7541
  3.581   9.7438
  3.579   9.7541
  3.576   9.7644
  3.574   9.6614
  3.571   9.6511
  3.569   9.6408
  3.567   9.6820
  3.564   9.6923
  3.562   9.6202
  3.559   9.5584
  3.557   9.6202
  3.554   9.5996
  3.552   9.5790
  3.549   9.5172
  3.547   9.5069
  3.545   9.4966
  3.542   9.5275
  3.540   9.5481
  3.537   9.4554
  3.535   9.3112
  3.533   9.3524
  3.530   9.4245
  3.528   9.4966
  3.525   9.4142
  3.523   9.3421
  3.521   9.2597
  3.518   9.2803
  3.516   9.2803
  3.513   9.2391
  3.511   9.1670
  3.509   9.1979
  3.506   9.1361
  3.504   9.0743
  3.502   9.0022
  3.499   9.0743
  3.497   9.1464
  3.494   9.1155
  3.492   9.1052
  3.490   9.0640
  3.487   8.9919
  3.485   8.9198
  3.483   8.8992
  3.480   8.9301
  3.478   8.8374
  3.476   8.7756
  3.473   8.8065
  3.471   8.9713
  3.469   9.0022
  3.466   8.9507
  3.464   8.7962
  3.462   8.8580
  3.460   8.8889
  3.457   8.8683
  3.455   8.8168
  3.453   8.7447
  3.450   8.6623
  3.448   8.7653
  3.446   8.7756
  3.443   8.7138
  3.441   8.6314
  3.439   8.7138
  3.437   8.7344
  3.434   8.6623
  3.432   8.5284
  3.430   8.4872
  3.428   8.5799
  3.425   8.5490
  3.423   8.4666
  3.421   8.5078
  3.418   8.4151
  3.416   8.3018
  3.414   8.3224
  3.412   8.3327
  3.409   8.3842
  3.407   8.4460
  3.405   8.4563
  3.403   8.5593
  3.401   8.4666
  3.398   8.3430
  3.396   8.3636
  3.394   8.4254
  3.392   8.4254
  3.389   8.3018
  3.387   8.1164
  3.385   8.0752
  3.383   8.1576
  3.381   8.2297
  3.378   8.2297
  3.376   8.2194
  3.374   8.1267
  3.372   8.2194
  3.370   8.1370
  3.367   8.0855
  3.365   8.1267
  3.363   8.0752
  3.361   7.9928
  3.359   8.0649
  3.357   8.1576
  3.354   8.1267
  3.352   8.0134
  3.350   8.1164
  3.348   8.1576
  3.346   8.0134
  3.344   7.8383
  3.341   7.8898
  3.339   8.0134
  3.337   8.0031
  3.335   7.9413
  3.333   7.9516
  3.331   7.9413
  3.329   7.9825
  3.326   8.0031
  3.324   8.0031
  3.322   8.0031
  3.320   8.0855
  3.318   7.9413
  3.316   7.7868
  3.314   7.7765
  3.312   7.8074
  3.309   7.7353
  3.307   7.7971
  3.305   7.8280
  3.303   7.7250
  3.301   7.7765
  3.299   7.9001
  3.297   7.8280
  3.295   7.7559
  3.293   7.7147
  3.291   7.7353
  3.288   7.6426
  3.286   7.5602
  3.284   7.6323
  3.282   7.6941
  3.280   7.7250
  3.278   7.6941
  3.276   7.6426
  3.274   7.5911
  3.272   7.5293
  3.270   7.5499
  3.268   7.5190
  3.266   7.4572
  3.264   7.4366
  3.262   7.4263
  3.259   7.3439
  3.257   7.4160
  3.255   7.5087
  3.253   7.4881
  3.251   7.4469
  3.249   7.3954
  3.247   7.4057
  3.245   7.5087
  3.243   7.3542
  3.241   7.3027
  3.239   7.3851
  3.237   7.3233
  3.235   7.2615
  3.233   7.3336
  3.231   7.3748
  3.229   7.4160
  3.227   7.3336
  3.225   7.4160
  3.223   7.3233
  3.221   7.2306
  3.219   7.2100
  3.217   7.2615
  3.215   7.1997
  3.213   7.0452
  3.211   7.0452
  3.209   7.1688
  3.207   7.1997
  3.205   7.2409
  3.203   7.1894
  3.201   7.2100
  3.199   7.1379
  3.197   7.0761
  3.195   7.0040
  3.193   7.0246
  3.191   6.9628
  3.189   7.0040
  3.187   6.9937
  3.185   7.0143
  3.183   6.9834
  3.182   7.0040
  3.180   7.0761
  3.178   7.0761
  3.176   6.9525
  3.174   7.0143
  3.172   6.9319
  3.170   6.9010
  3.168   6.9731
  3.166   7.0658
  3.164   7.0040
  3.162   6.9010
  3.160   6.7980
  3.158   6.7671
  3.156   6.8907
  3.154   7.0452
  3.152   6.9628
  3.151   6.8598
  3.149   6.8186
  3.147   6.8598
  3.145   6.7877
  3.143   6.8907
  3.141   6.8701
  3.139   6.7568
  3.137   6.6641
  3.135   6.8083
  3.133   6.8289
  3.132   6.6950
  3.130   6.6332
  3.128   6.6950
  3.126   6.7362
  3.124   6.7053
  3.122   6.7465
  3.120   6.8495
  3.118   6.7156
  3.117   6.6023
  3.115   6.6126
  3.113   6.6332
  3.111   6.6332
  3.109   6.7156
  3.107   6.6950
  3.105   6.6538
  3.103   6.4890
  3.102   6.5302
  3.100   6.6126
  3.098   6.6641
  3.096   6.5817
  3.094   6.6538
  3.092   6.6950
  3.091   6.6641
  3.089   6.6435
  3.087   6.6126
  3.085   6.5714
  3.083   6.5508
  3.081   6.3963
  3.079   6.4375
  3.078   6.6126
  3.076   6.7053
  3.074   6.6126
  3.072   6.5508
  3.070   6.5302
  3.069   6.5611
  3.067   6.5508
  3.065   6.6023
  3.063   6.5199
  3.061   6.5714
  3.060   6.7671
  3.058   6.7774
  3.056   6.4272
  3.054   6.4993
  3.052   6.7774
  3.051   6.7259
  3.049   6.4684
  3.047   6.5611
  3.045   6.7156
  3.043   6.8392
  3.042   6.7259
  3.040   6.6332
  3.038   6.5302
  3.036   6.4890
  3.034   6.5920
  3.033   6.7465
  3.031   6.5920
  3.029   6.4272
  3.027   6.3242
  3.026   6.5302
  3.024   6.6435
  3.022   6.5302
  3.020   6.4478
  3.019   6.5096
  3.017   6.4993
  3.015   6.4478
  3.013   6.4684
  3.012   6.7156
  3.010   6.7465
  3.008   6.7156
  3.006   6.6950
  3.005   6.7053
  3.003   6.5611
  3.001   6.4890
  2.999   6.5302
  2.998   6.4787
  2.996   6.4684
  2.994   6.5096
  2.992   6.5817
  2.991   6.7053
  2.989   6.5508
  2.987   6.4787
  2.986   6.4993
  2.984   6.5817
  2.982   6.5714
  2.980   6.4684
  2.979   6.3654
  2.977   6.5817
  2.975   6.6538
  2.974   6.6126
  2.972   6.3860
  2.970   6.3654
  2.968   6.4066
  2.967   6.3860
  2.965   6.2212
  2.963   6.2727
  2.962   6.3654
  2.960   6.4890
  2.958   6.4890
  2.957   6.5714
  2.955   6.5920
  2.953   6.4787
  2.952   6.2933
  2.950   6.1903
  2.948   6.1388
  2.947   6.3551
  2.945   6.5508
  2.943   6.6435
  2.942   6.6538
  2.940   6.6744
  2.938   6.5508
  2.937   6.4890
  2.935   6.3963
  2.933   6.5199
  2.932   6.4478
  2.930   6.3757
  2.928   6.3345
  2.927   6.2315
  2.925   6.2418
  2.923   6.5199
  2.922   6.6435
  2.920   6.5096
  2.918   6.4272
  2.917   6.6229
  2.915   6.6950
  2.913   6.7980
  2.912   6.6435
  2.910   6.4684
  2.909   6.3139
  2.907   6.3242
  2.905   6.4684
  2.904   6.7259
  2.902   6.8083
  2.900   6.7156
  2.899   6.6023
  2.897   6.5714
  2.896   6.4581
  2.894   6.5302
  2.892   6.5714
  2.891   6.6023
  2.889   6.6950
  2.887   7.0143
  2.886   6.8392
  2.884   6.6332
  2.883   6.4169
  2.881   6.4581
  2.879   6.6435
  2.878   6.7156
  2.876   6.6023
  2.875   6.7774
  2.873   6.7877
  2.871   6.6950
  2.870   6.5508
  2.868   6.6950
  2.867   6.6332
  2.865   6.5096
  2.864   6.5405
  2.862   6.5096
  2.860   6.5096
  2.859   6.7671
  2.857   6.8392
  2.856   6.8495
  2.854   6.9937
  2.853   7.0864
  2.851   6.8804
  2.849   6.9422
  2.848   6.9525
  2.846   6.9010
  2.845   6.7568
  2.843   6.7259
  2.842   6.4993
  2.840   6.5405
  2.838   6.8392
  2.837   6.9319
  2.835   6.7568
  2.834   6.8186
  2.832   6.9628
  2.831   7.0761
  2.829   6.9731
  2.828   7.0452
  2.826   6.8392
  2.825   6.7671
  2.823   6.9010
  2.821   7.0452
  2.820   6.9937
  2.818   6.8701
  2.817   6.8701
  2.815   6.9937
  2.814   7.1276
  2.812   7.1173
  2.811   6.8186
  2.809   6.8392
  2.808   6.9937
  2.806   7.0864
  2.805   7.0761
  2.803   7.1482
  2.802   7.1482
  2.800   7.1173
  2.799   7.1791
  2.797   7.1070
  2.796   7.0967
  2.794   7.0761
  2.793   6.9113
  2.791   7.0349
  2.790   7.2409
  2.788   7.3233
  2.787   7.1379
  2.785   7.0864
  2.784   6.9937
  2.782   6.9834
  2.781   6.9216
  2.779   7.0658
  2.778   7.4160
  2.776   7.5705
  2.775   7.3851
  2.773   7.5293
  2.772   7.5705
  2.770   7.3336
  2.769   7.0967
  2.767   7.1894
  2.766   7.1070
  2.764   7.4263
  2.763   7.5499
  2.761   7.2718
  2.760   7.0864
  2.758   7.0864
  2.757   7.0246
  2.756   7.1482
  2.754   7.2821
  2.753   7.5705
  2.751   7.5911
  2.750   7.5808
  2.748   7.6014
  2.747   7.6220
  2.745   7.4675
  2.744   7.5808
  2.742   7.7868
  2.741   8.0649
  2.740   8.0958
  2.738   8.0855
  2.737   8.1576
  2.735   8.3842
  2.734   8.3018
  2.732   8.3430
  2.731   8.2297
  2.729   8.2915
  2.728   8.5593
  2.727   8.8065
  2.725   8.8271
  2.724   8.9198
  2.722   9.0846
  2.721   9.3627
  2.719   9.2803
  2.718   9.3627
  2.717   9.1464
  2.715   9.0125
  2.714   9.3318
  2.712   9.7438
  2.711   9.9292
  2.709  10.1455
  2.708  10.0631
  2.707  10.2382
  2.705  10.2691
  2.704  10.2691
  2.702  10.3206
  2.701  10.7223
  2.700  10.9283
  2.698  10.9592
  2.697  11.1034
  2.695  11.4742
  2.694  11.9274
  2.693  12.0716
  2.691  12.0922
  2.690  12.4321
  2.688  12.7720
  2.687  13.0089
  2.686  12.9780
  2.684  13.0192
  2.683  13.0192
  2.681  13.2458
  2.680  13.4621
  2.679  13.7196
  2.677  13.6681
  2.676  13.8020
  2.675  13.8020
  2.673  13.9050
  2.672  13.7608
  2.670  13.8844
  2.669  13.9359
  2.668  14.0801
  2.666  14.0904
  2.665  14.3067
  2.664  14.2861
  2.662  14.4715
  2.661  14.6054
  2.659  14.6878
  2.658  14.6878
  2.657  14.8320
  2.655  14.7496
  2.654  14.7393
  2.653  14.6054
  2.651  14.3891
  2.650  14.3067
  2.649  14.7084
  2.647  14.8938
  2.646  15.1101
  2.645  15.1822
  2.643  15.0071
  2.642  14.7805
  2.640  14.8526
  2.639  14.7187
  2.638  14.8526
  2.636  14.8526
  2.635  14.8011
  2.634  14.7805
  2.632  14.8732
  2.631  14.7702
  2.630  14.7496
  2.628  15.0277
  2.627  15.2440
  2.626  14.9453
  2.624  14.8114
  2.623  14.7805
  2.622  14.7702
  2.620  14.9247
  2.619  15.2955
  2.618  15.3882
  2.617  15.1822
  2.615  15.1616
  2.614  15.2028
  2.613  14.9247
  2.611  15.0998
  2.610  15.0483
  2.609  15.0586
  2.607  15.1925
  2.606  15.3367
  2.605  15.2440
  2.603  15.1204
  2.602  14.9041
  2.601  14.8423
  2.599  14.8217
  2.598  15.1616
  2.597  15.1925
  2.596  15.1719
  2.594  14.9350
  2.593  15.0483
  2.592  15.1616
  2.590  15.2028
  2.589  15.2543
  2.588  15.3779
  2.586  15.1925
  2.585  14.9350
  2.584  14.6363
  2.583  14.9865
  2.581  15.2749
  2.580  15.0380
  2.579  15.0689
  2.577  15.3676
  2.576  15.2749
  2.575  15.1822
  2.574  15.1204
  2.572  15.2440
  2.571  15.1410
  2.570  15.0895
  2.569  14.9556
  2.567  15.0174
  2.566  15.1925
  2.565  15.4191
  2.563  15.4294
  2.562  15.1410
  2.561  15.0380
  2.560  15.3058
  2.558  15.2028
  2.557  15.2955
  2.556  15.2131
  2.555  15.2543
  2.553  15.3676
  2.552  15.4706
  2.551  15.4397
  2.550  15.2028
  2.548  15.2646
  2.547  15.3985
  2.546  15.2440
  2.545  15.2440
  2.543  14.9968
  2.542  14.7496
  2.541  14.8629
  2.540  15.0071
  2.538  15.0895
  2.537  15.3161
  2.536  15.3264
  2.535  15.3367
  2.533  15.0277
  2.532  14.9453
  2.531  15.5015
  2.530  15.8517
  2.528  15.5839
  2.527  15.5324
  2.526  15.2646
  2.525  15.0792
  2.524  14.9865
  2.522  15.2749
  2.521  15.3367
  2.520  15.4088
  2.519  15.6457
  2.517  15.6148
  2.516  15.1204
  2.515  15.0483
  2.514  15.2852
  2.513  15.2852
  2.511  15.2955
  2.510  15.5324
  2.509  15.5427
  2.508  15.3058
  2.506  15.2440
  2.505  15.5221
  2.504  15.4706
  2.503  15.2852
  2.502  15.3882
  2.500  15.6354
  2.496  15.4749
  2.492  16.2272
  2.488  15.7142
  2.484  14.9671
  2.480  15.6559
  2.476  16.1080
  2.472  15.9248
  2.468  16.1730
  2.464  15.6741
  2.460  15.6446
  2.456  15.9882
  2.452  16.0789
  2.448  16.1759
  2.444  16.0571
  2.440  15.8721
  2.436  16.0045
  2.432  16.0512
  2.428  16.2003
  2.424  16.6746
  2.420  16.2709
  2.416  16.5428
  2.412  16.5317
  2.408  16.5919
  2.404  16.2545
  2.400  16.8576
  2.396  16.4734
  2.392  16.6051
  2.388  16.7087
  2.384  16.8849
  2.380  16.6656
  2.376  16.3476
  2.372  16.9316
  2.368  17.0470
  2.364  17.0672
  2.360  16.7717
  2.356  16.9858
  2.352  16.9466
  2.348  16.9979
  2.344  16.9807
  2.340  17.0042
  2.336  17.1167
  2.332  16.9487
  2.328  17.2257
  2.324  17.5662
  2.320  17.0063
  2.316  16.9222
  2.312  17.0260
  2.308  17.2652
  2.304  17.0505
  2.300  17.4856
  2.296  17.4824
  2.292  17.3835
  2.288  17.4568
  2.284  17.1402
  2.280  17.2687
  2.276  17.3821
  2.272  17.4801
  2.268  17.5000
  2.264  17.3521
  2.260  17.5141
  2.256  17.5724
  2.252  17.4306
  2.248  17.4352
  2.244  17.5366
  2.240  17.5558
  2.236  17.4536
  2.232  17.4531
  2.228  17.5814
  2.224  17.5894
  2.220  17.6158
  2.216  17.6771
  2.212  17.6993
  2.208  17.7530
  2.204  17.8469
  2.200  17.7827
  2.196  17.8852
  2.192  17.9994
  2.188  18.1256
  2.184  18.0662
  2.180  18.0559
  2.176  18.2221
  2.172  18.3396
  2.168  18.3620
  2.164  18.3733
  2.160  18.4170
  2.156  18.4297
  2.152  18.4501
  2.148  18.5718
  2.144  18.6072
  2.140  18.5445
  2.136  18.4817
  2.132  18.5663
  2.128  18.7150
  2.124  18.5599
  2.120  18.5319
  2.116  18.4983
  2.112  18.5416
  2.108  18.4651
  2.104  18.3718
  2.100  18.3844
  2.096  18.5141
  2.092  18.5187
  2.088  18.5206
  2.084  18.5661
  2.080  18.6418
  2.076  18.7105
  2.072  18.7562
  2.068  18.6960
  2.064  18.7127
  2.060  18.7818
  2.056  18.8535
  2.052  18.8761
  2.048  18.8956
  2.044  18.9027
  2.040  18.9529
  2.036  18.9382
  2.032  18.9121
  2.028  18.9716
  2.024  19.0149
  2.020  18.9811
  2.016  18.9278
  2.012  19.0090
  2.008  19.0311
  2.004  19.0074
  2.000  19.0095
  1.996  18.9516
  1.992  18.9589
  1.988  19.0176
  1.984  19.0110
  1.980  18.9458
  1.976  18.9224
  1.972  18.9310
  1.968  18.9644
  1.964  18.9591
  1.960  18.9569
  1.956  18.9077
  1.952  18.8263
  1.948  18.8483
  1.944  18.8148
  1.940  18.7914
  1.936  18.7717
  1.932  18.6492
  1.928  18.5992
  1.924  18.4711
  1.920  18.3239
  1.916  18.3904
  1.912  18.4695
  1.908  18.4376
  1.904  18.4934
  1.900  18.6796
  1.896  18.9385
  1.892  19.1369
  1.888  19.3155
  1.884  19.4992
  1.880  19.6426
  1.876  19.7820
  1.872  19.8589
  1.868  19.9220
  1.864  19.9800
  1.860  20.0079
  1.856  19.9959
  1.852  20.0008
  1.848  20.0802
  1.844  20.1169
  1.840  20.1551
  1.836  20.2047
  1.832  20.1556
  1.828  20.1450
  1.824  20.1734
  1.820  20.1980
  1.816  20.2283
  1.812  20.2307
  1.808  20.2539
  1.804  20.2732
  1.800  20.3122
  1.796  20.3687
  1.792  20.3617
  1.788  20.3787
  1.784  20.4281
  1.780  20.4611
  1.776  20.4722
  1.772  20.4767
  1.768  20.4681
  1.764  20.4423
  1.760  20.4889
  1.756  20.4998
  1.752  20.5117
  1.748  20.4887
  1.744  20.5061
  1.740  20.5273
  1.736  20.5014
  1.732  20.5526
  1.728  20.5935
  1.724  20.5789
  1.720  20.5741
  1.716  20.6042
  1.712  20.5972
  1.708  20.5877
  1.704  20.6006
  1.700  20.5716
  1.696  20.6262
  1.692  20.6775
  1.688  20.6665
  1.684  20.6447
  1.680  20.6181
  1.676  20.6295
  1.672  20.6188
  1.668  20.5988
  1.664  20.6427
  1.660  20.6225
  1.656  20.5849
  1.652  20.6255
  1.648  20.6288
  1.644  20.6234
  1.640  20.6200
  1.636  20.6088
  1.632  20.5729
  1.628  20.5831
  1.624  20.5550
  1.620  20.5810
  1.616  20.5938
  1.612  20.5624
  1.608  20.5164
  1.604  20.5128
  1.600  20.5166
  1.596  20.5179
  1.592  20.5018
  1.588  20.4701
  1.584  20.4805
  1.580  20.4301
  1.576  20.4288
  1.572  20.3832
  1.568  20.4198
  1.564  20.3900
  1.560  20.3733
  1.556  20.3050
  1.552  20.3156
  1.548  20.2962
  1.544  20.2726
  1.540  20.2665
  1.536  20.2318
  1.532  20.2081
  1.528  20.1809
  1.524  20.1543
  1.520  20.1444
  1.516  20.1051
  1.512  20.0662
  1.508  20.0808
  1.504  20.0379
  1.500  20.0187
  1.496  20.0100
  1.492  19.9435
  1.488  19.9179
  1.484  19.9004
  1.480  19.8915
  1.476  19.8220
  1.472  19.8252
  1.468  19.8164
  1.464  19.7404
  1.460  19.7144
  1.456  19.7264
  1.452  19.7052
  1.448  19.6765
  1.444  19.6483
  1.440  19.5691
  1.436  19.5944
  1.432  19.5376
  1.428  19.4676
  1.424  19.4210
  1.420  19.4434
  1.416  19.3776
  1.412  19.3869
  1.408  19.3744
  1.404  19.4410
  1.400  19.4197
  1.396  19.3926
  1.392  19.4083
  1.388  19.4501
  1.384  19.5004
  1.380  19.4951
  1.376  19.3887
  1.372  19.3895
  1.368  19.4702
  1.364  19.5178
  1.360  19.4507
  1.356  19.3220
  1.352  19.2864
  1.348  19.3011
  1.344  19.3349
  1.340  19.3923
  1.336  19.3757
  1.332  19.3556
  1.328  19.2917
  1.324  19.2628
  1.320  19.2966
  1.316  19.2541
  1.312  19.2548
  1.308  19.2232
  1.304  19.2103
  1.300  19.2628
  1.296  19.2049
  1.292  19.2314
  1.288  19.2806
  1.284  19.1768
  1.280  19.2045
  1.276  19.2110
  1.272  19.2201
  1.268  19.1573
  1.264  19.1866
  1.260  19.2379
  1.256  19.1781
  1.252  19.1736
  1.248  19.2028
  1.244  19.2039
  1.240  19.1655
  1.236  19.1638
  1.232  19.1823
  1.228  19.1792
  1.224  19.2231
  1.220  19.1926
  1.216  19.1546
  1.212  19.1666
  1.208  19.1956
  1.204  19.1453
  1.200  19.1752
  1.196  19.1891
  1.192  19.1959
  1.188  19.1348
  1.184  19.1396
  1.180  19.1658
  1.176  19.1594
  1.172  19.1871
  1.168  19.1981
  1.164  19.1730
  1.160  19.1271
  1.156  19.1523
  1.152  19.1572
  1.148  19.1461
  1.144  19.1175
  1.140  19.1043
  1.136  19.1067
  1.132  19.0986
  1.128  19.0262
  1.124  19.0629
  1.120  19.0427
  1.116  19.0238
  1.112  18.9987
  1.108  18.9241
  1.104  18.9680
  1.100  18.9524
  1.096  18.9520
  1.092  18.9203
  1.088  18.8706
  1.084  18.8537
  1.080  18.9128
  1.076  18.8573
  1.072  18.8488
  1.068  18.8693
  1.064  18.8518
  1.060  18.8433
  1.056  18.9101
  1.052  18.9200
  1.048  18.9057
  1.044  18.9076
  1.040  18.9320
  1.036  18.9395
  1.032  18.9616
  1.028  18.9854
  1.024  19.0188
  1.020  19.0676
  1.016  19.0775
  1.012  19.0986
  1.008  19.1320
  1.004  19.1487
  1.000  19.2041
  0.996  19.2310
  0.992  19.2942
  0.988  19.3597
  0.984  19.3745
  0.980  19.4214
  0.976  19.4509
  0.972  19.5188
  0.968  19.5201
  0.964  19.6013
  0.960  19.6483
  0.956  19.6816
  0.952  19.7327
  0.948  19.7910
  0.944  19.8549
  0.940  19.8629
  0.936  19.9207
  0.932  20.0018
  0.928  20.0649
  0.924  20.2099
  0.920  20.3299
  0.916  20.3960
  0.912  20.4462
  0.908  20.5994
  0.904  20.7189
  0.900  20.7811
  0.896  20.7680
  0.892  20.7964
  0.888  20.8687
  0.884  20.8490
  0.880  20.9331
  0.876  21.1032
  0.872  21.0620
  0.868  21.0068
  0.864  20.9120
  0.860  20.9779
  0.856  21.2022
  0.852  21.5252
  0.848  21.5512
  0.844  21.4729
  0.840  21.4929
  0.836  21.6015
  0.832  21.6301
  0.828  21.7280
  0.824  21.7536
  0.820  21.7704
  0.816  21.7545
  0.812  21.7873
  0.808  21.8478
  0.804  21.8267
  0.800  21.8686
  0.796  21.8895
  0.792  21.8973
  0.788  21.9218
  0.784  21.9746
  0.780  22.0032
  0.776  22.0330
  0.772  22.0635
  0.768  22.0632
  0.764  22.0930
  0.760  22.1159
  0.756  22.0869
  0.752  22.0984
  0.748  22.0893
  0.744  22.1180
  0.740  22.0559
  0.736  22.0757
  0.732  22.0697
  0.728  22.0455
  0.724  22.0290
  0.720  22.0394
  0.716  22.0083
  0.712  21.9728
  0.708  21.9626
  0.704  21.9147
  0.700  21.8770
  0.696  21.8173
  0.692  21.8037
  0.688  21.7837
  0.684  21.7329
  0.680  21.6999
  0.676  21.6920
  0.672  21.6507
  0.668  21.5920
  0.664  21.5781
  0.660  21.5660
  0.656  21.5055
  0.652  21.4647
  0.648  21.4043
  0.644  21.3923
  0.640  21.3920
  0.636  21.3551
  0.632  21.3223
  0.628  21.3008
  0.624  21.2958
  0.620  21.2521
  0.616  21.1890
  0.612  21.1523
  0.608  21.0913
  0.604  21.0287
  0.600  20.9468
  0.596  20.8920
  0.592  20.8141
  0.588  20.6731
  0.584  20.5318
  0.580  20.4343
  0.576  20.3025
  0.572  20.1621
  0.568  19.9877
  0.564  19.8475
  0.560  19.7186
  0.556  19.5930
  0.552  19.4739
  0.548  19.3479
  0.544  19.2355
  0.540  19.1338
  0.536  19.0464
  0.532  18.9502
  0.528  18.8580
  0.524  18.7820
  0.520  18.7090
  0.516  18.6335
  0.512  18.5460
  0.508  18.4791
  0.504  18.4202
  0.500  18.3582
  0.496  18.2717
  0.492  18.1974
  0.488  18.1168
  0.484  18.0453
  0.480  18.0055
  0.476  18.0164
  0.472  18.0211
  0.468  17.9804
  0.464  17.9158
  0.460  17.8646
  0.456  17.7991
  0.452  17.7103
  0.448  17.6045
  0.444  17.5171
  0.440  17.4353
  0.436  17.3304
  0.432  17.2517
  0.428  17.1787
  0.424  17.0995
  0.420  17.0280
  0.416  16.9498
  0.412  16.8779
  0.408  16.8119
  0.404  16.7503
  0.400  16.6797
