Name: Rhyolite
Type: Rock
Class: Igneous
Subclass: Felsic
Particle Size: Whole Rock Chips
Sample No.: AP-938-90
Owner: United States Geological Survey, L. C. Rowan
Wavelength range: 0.405 - 14.05 um
Origin: Iberian Pyrite Belt, Spain

Description: Rhyolite, fine silicified





Measurement: Directional Hemispherical Reflectance
First Column: X
Second Column: Y
X Units: Wavelength (micrometers)
Y Units: Reflectance (percent)
First X Value: 14.05105
Last X Value: 0.40500
Number of X Values: 2530
Additional Information: rhy90a.txt

 14.051   1.7201
 14.013   1.6892
 13.975   1.7613
 13.938   1.7098
 13.900   1.6995
 13.863   1.8334
 13.826   1.9570
 13.790   1.9055
 13.753   2.0291
 13.717   2.0497
 13.680   2.0600
 13.644   1.9982
 13.609   1.9673
 13.573   1.9879
 13.538   2.1424
 13.502   2.2351
 13.467   2.3690
 13.432   2.3484
 13.398   2.2763
 13.363   2.1527
 13.329   2.1733
 13.295   2.1321
 13.261   2.1012
 13.227   2.1115
 13.193   2.2660
 13.160   2.3484
 13.126   2.3484
 13.093   2.2763
 13.060   2.2866
 13.027   2.2866
 12.995   2.4308
 12.962   2.5132
 12.930   2.4720
 12.898   2.4617
 12.866   2.5750
 12.834   2.5235
 12.802   2.5441
 12.771   2.5647
 12.739   2.5956
 12.708   2.4823
 12.677   2.4720
 12.646   2.4411
 12.616   2.4411
 12.585   2.3278
 12.554   2.2969
 12.524   2.3175
 12.494   2.4411
 12.464   2.4205
 12.434   2.4102
 12.404   2.2969
 12.375   2.3175
 12.345   2.2660
 12.316   2.2248
 12.287   2.1321
 12.258   2.1012
 12.229   2.1115
 12.200   2.2969
 12.171   2.3999
 12.143   2.4926
 12.115   2.4823
 12.086   2.5441
 12.058   2.6265
 12.030   2.7192
 12.002   2.6574
 11.975   2.7089
 11.947   2.8428
 11.920   2.9458
 11.892   2.9458
 11.865   3.0694
 11.838   3.1312
 11.811   3.1827
 11.784   3.1518
 11.757   3.2857
 11.731   3.3269
 11.704   3.3578
 11.678   3.3990
 11.652   3.4608
 11.626   3.4402
 11.600   3.5432
 11.574   3.5432
 11.548   3.5844
 11.522   3.6153
 11.497   3.7080
 11.471   3.7389
 11.446   3.7801
 11.421   3.7595
 11.396   3.8110
 11.371   3.7286
 11.346   3.8007
 11.321   3.8522
 11.297   3.8831
 11.272   3.9140
 11.248   4.0479
 11.223   4.1200
 11.199   4.2333
 11.175   4.2436
 11.151   4.2642
 11.127   4.2642
 11.103   4.3878
 11.079   4.4599
 11.056   4.5320
 11.032   4.5732
 11.009   4.5732
 10.985   4.6865
 10.962   4.7277
 10.939   4.6144
 10.916   4.4805
 10.893   4.2951
 10.870   4.1406
 10.848   4.0067
 10.825   3.9552
 10.802   3.8316
 10.780   3.7492
 10.758   3.6359
 10.735   3.7080
 10.713   3.7492
 10.691   3.7698
 10.669   3.8007
 10.647   3.7595
 10.625   3.7183
 10.604   3.7698
 10.582   3.7698
 10.560   3.8522
 10.539   3.8625
 10.518   3.9552
 10.496   4.0376
 10.475   4.0685
 10.454   4.0891
 10.433   4.2539
 10.412   4.4084
 10.391   4.5320
 10.370   4.5835
 10.350   4.6968
 10.329   4.8410
 10.309   4.9646
 10.288   5.0779
 10.268   5.2942
 10.247   5.4384
 10.227   5.6753
 10.207   5.8401
 10.187   5.9843
 10.167   6.1182
 10.147   6.3036
 10.127   6.3757
 10.108   6.4993
 10.088   6.6435
 10.068   6.9422
 10.049   7.2615
 10.029   7.5396
 10.010   7.6529
  9.991   7.8898
  9.972   8.1370
  9.952   8.3945
  9.933   8.5902
  9.914   8.7035
  9.895   8.7138
  9.877   8.7138
  9.858   8.6005
  9.839   8.4254
  9.821   8.2606
  9.802   8.1988
  9.783   8.2194
  9.765   8.4254
  9.747   8.7241
  9.728   9.1258
  9.710   9.5893
  9.692  10.0219
  9.674  10.3824
  9.656  10.7326
  9.638  11.1343
  9.620  11.5257
  9.602  11.5772
  9.585  11.6596
  9.567  11.7420
  9.549  11.7729
  9.532  11.7420
  9.514  11.6802
  9.497  11.6390
  9.479  11.6596
  9.462  11.5257
  9.445  11.3197
  9.428  11.1137
  9.411  10.9798
  9.394  10.8768
  9.377  10.8150
  9.360  10.6502
  9.343  10.5884
  9.326  10.4957
  9.309  10.3103
  9.293  10.0631
  9.276  10.0116
  9.259   9.8880
  9.243   9.7129
  9.226   9.4863
  9.210   9.3009
  9.194   9.1464
  9.178   8.9610
  9.161   8.7550
  9.145   8.6211
  9.129   8.2915
  9.113   7.9516
  9.097   7.6838
  9.081   7.4366
  9.065   7.0658
  9.049   6.7774
  9.034   6.3963
  9.018   6.1182
  9.002   5.9637
  8.987   5.9431
  8.971   5.9637
  8.956   6.1491
  8.940   6.3963
  8.925   6.6435
  8.909   6.8083
  8.894   7.0246
  8.879   7.0246
  8.864   7.0040
  8.849   6.9113
  8.834   6.7877
  8.819   6.6023
  8.804   6.4684
  8.789   6.3139
  8.774   6.1285
  8.759   5.8298
  8.744   5.6753
  8.730   5.4590
  8.715   5.3663
  8.700   5.1809
  8.686   4.9955
  8.671   4.8719
  8.657   4.6865
  8.642   4.4187
  8.628   4.2745
  8.614   4.1509
  8.599   4.1715
  8.585   4.3157
  8.571   4.4496
  8.557   4.4393
  8.543   4.4702
  8.529   4.4290
  8.515   4.3775
  8.501   4.3569
  8.487   4.3878
  8.473   4.3157
  8.459   4.3157
  8.445   4.3569
  8.431   4.3775
  8.418   4.3054
  8.404   4.3672
  8.391   4.3775
  8.377   4.3775
  8.363   4.3054
  8.350   4.3466
  8.337   4.3569
  8.323   4.4084
  8.310   4.4496
  8.297   4.4496
  8.283   4.3466
  8.270   4.3672
  8.257   4.4187
  8.244   4.4805
  8.231   4.4702
  8.218   4.5011
  8.205   4.5114
  8.192   4.5217
  8.179   4.4908
  8.166   4.4290
  8.153   4.2436
  8.140   4.2024
  8.128   4.0994
  8.115   3.9243
  8.102   3.7492
  8.090   3.5741
  8.077   3.4093
  8.064   3.3475
  8.052   3.2548
  8.039   3.2136
  8.027   3.1106
  8.015   3.0076
  8.002   2.9458
  7.990   2.9149
  7.978   2.8325
  7.965   2.7707
  7.953   2.6780
  7.941   2.6059
  7.929   2.5441
  7.917   2.5029
  7.905   2.3999
  7.893   2.3381
  7.881   2.2248
  7.869   2.1733
  7.857   2.1321
  7.845   2.0909
  7.833   2.0188
  7.821   2.0085
  7.809   1.9982
  7.798   2.0394
  7.786   2.0188
  7.774   2.0188
  7.763   2.0188
  7.751   1.9879
  7.739   1.8746
  7.728   1.8231
  7.716   1.7922
  7.705   1.8540
  7.694   1.9158
  7.682   1.8540
  7.671   1.7407
  7.659   1.7407
  7.648   1.7201
  7.637   1.7819
  7.626   1.8025
  7.614   1.7716
  7.603   1.6995
  7.592   1.6789
  7.581   1.6480
  7.570   1.6377
  7.559   1.5759
  7.548   1.6068
  7.537   1.5656
  7.526   1.5450
  7.515   1.5347
  7.504   1.5656
  7.493   1.5759
  7.483   1.6171
  7.472   1.5965
  7.461   1.5965
  7.450   1.5965
  7.440   1.5759
  7.429   1.5450
  7.418   1.5450
  7.408   1.5038
  7.397   1.5656
  7.387   1.6171
  7.376   1.5965
  7.366   1.5141
  7.355   1.4832
  7.345   1.5244
  7.334   1.5862
  7.324   1.5656
  7.314   1.4935
  7.303   1.4523
  7.293   1.4935
  7.283   1.5347
  7.273   1.5553
  7.263   1.5759
  7.252   1.6171
  7.242   1.5450
  7.232   1.5038
  7.222   1.5450
  7.212   1.5965
  7.202   1.5759
  7.192   1.5862
  7.182   1.5553
  7.172   1.5553
  7.162   1.5141
  7.152   1.5347
  7.143   1.5759
  7.133   1.6171
  7.123   1.5862
  7.113   1.5862
  7.103   1.5656
  7.094   1.5553
  7.084   1.5347
  7.074   1.5862
  7.065   1.5347
  7.055   1.5038
  7.046   1.4832
  7.036   1.5141
  7.026   1.5347
  7.017   1.5656
  7.007   1.5141
  6.998   1.5038
  6.989   1.4832
  6.979   1.5347
  6.970   1.5965
  6.960   1.5862
  6.951   1.5038
  6.942   1.5347
  6.932   1.5347
  6.923   1.5862
  6.914   1.5450
  6.905   1.5553
  6.896   1.5450
  6.886   1.5759
  6.877   1.5759
  6.868   1.5965
  6.859   1.6171
  6.850   1.6789
  6.841   1.6789
  6.832   1.6892
  6.823   1.6892
  6.814   1.6995
  6.805   1.7098
  6.796   1.7407
  6.787   1.7510
  6.778   1.7819
  6.770   1.8025
  6.761   1.8437
  6.752   1.8334
  6.743   1.8643
  6.734   1.8849
  6.726   1.9158
  6.717   1.9261
  6.708   1.9673
  6.700   1.9261
  6.691   1.9055
  6.682   1.8952
  6.674   1.9158
  6.665   1.9364
  6.657   2.0085
  6.648   2.0188
  6.640   2.0188
  6.631   1.9673
  6.623   1.9982
  6.614   1.9776
  6.606   1.9982
  6.597   1.9673
  6.589   1.9879
  6.581   2.0600
  6.572   2.0909
  6.564   2.0188
  6.556   1.9467
  6.547   1.9055
  6.539   1.9570
  6.531   1.9158
  6.523   1.9364
  6.514   1.9982
  6.506   2.0085
  6.498   2.0291
  6.490   2.0291
  6.482   2.0085
  6.474   2.0291
  6.466   2.0188
  6.458   2.0291
  6.450   2.0291
  6.442   2.0497
  6.434   2.0394
  6.426   2.0497
  6.418   2.0703
  6.410   2.1012
  6.402   2.1424
  6.394   2.1836
  6.386   2.1321
  6.378   2.0909
  6.370   2.1012
  6.363   2.1321
  6.355   2.1012
  6.347   2.1115
  6.339   2.1424
  6.332   2.1321
  6.324   2.1218
  6.316   2.1218
  6.308   2.0394
  6.301   2.0909
  6.293   2.1424
  6.286   2.1939
  6.278   2.1939
  6.270   2.1527
  6.263   2.0497
  6.255   2.0394
  6.248   2.0703
  6.240   2.0703
  6.233   2.0600
  6.225   2.0703
  6.218   1.9982
  6.210   1.9467
  6.203   1.9467
  6.195   1.9879
  6.188   1.9673
  6.181   1.9261
  6.173   1.8952
  6.166   1.9364
  6.159   1.9364
  6.151   1.8849
  6.144   1.8128
  6.137   1.8849
  6.130   1.9158
  6.122   1.8952
  6.115   1.8540
  6.108   1.8334
  6.101   1.7716
  6.094   1.8128
  6.086   1.8334
  6.079   1.8437
  6.072   1.8128
  6.065   1.7922
  6.058   1.7510
  6.051   1.7510
  6.044   1.7613
  6.037   1.8540
  6.030   1.8334
  6.023   1.8334
  6.016   1.8334
  6.009   1.8334
  6.002   1.8437
  5.995   1.9055
  5.988   1.8952
  5.981   1.8952
  5.974   1.8952
  5.967   1.9261
  5.960   1.9776
  5.954   1.9982
  5.947   1.9982
  5.940   1.9776
  5.933   1.9673
  5.926   1.9879
  5.920   1.9879
  5.913   2.0291
  5.906   2.0909
  5.899   2.1424
  5.893   2.1733
  5.886   2.2557
  5.879   2.2454
  5.873   2.2454
  5.866   2.2969
  5.859   2.3484
  5.853   2.3690
  5.846   2.3587
  5.840   2.3175
  5.833   2.3484
  5.827   2.4308
  5.820   2.4926
  5.813   2.4617
  5.807   2.4823
  5.800   2.5029
  5.794   2.5441
  5.788   2.5853
  5.781   2.5338
  5.775   2.5029
  5.768   2.6059
  5.762   2.6368
  5.755   2.5853
  5.749   2.5853
  5.743   2.6574
  5.736   2.6780
  5.730   2.6986
  5.724   2.7192
  5.717   2.7501
  5.711   2.7192
  5.705   2.7398
  5.698   2.8222
  5.692   2.9252
  5.686   2.9252
  5.680   2.9252
  5.674   2.9252
  5.667   2.9458
  5.661   2.9561
  5.655   2.9664
  5.649   2.9561
  5.643   3.0076
  5.637   3.0282
  5.630   3.0385
  5.624   2.9870
  5.618   3.0282
  5.612   3.0385
  5.606   3.0591
  5.600   3.0282
  5.594   3.0076
  5.588   3.0179
  5.582   3.0385
  5.576   3.0282
  5.570   3.0900
  5.564   3.1209
  5.558   3.1106
  5.552   3.0797
  5.546   3.1106
  5.540   3.1415
  5.534   3.1415
  5.528   3.1003
  5.523   3.1003
  5.517   3.1209
  5.511   3.1621
  5.505   3.1724
  5.499   3.1827
  5.493   3.1930
  5.487   3.2342
  5.482   3.2136
  5.476   3.2445
  5.470   3.2548
  5.464   3.3063
  5.459   3.3475
  5.453   3.4093
  5.447   3.3887
  5.441   3.3578
  5.436   3.3475
  5.430   3.4093
  5.424   3.3990
  5.419   3.3681
  5.413   3.3887
  5.407   3.4299
  5.402   3.3990
  5.396   3.3990
  5.390   3.3784
  5.385   3.3681
  5.379   3.3578
  5.374   3.3681
  5.368   3.3475
  5.363   3.3269
  5.357   3.2960
  5.352   3.3269
  5.346   3.3372
  5.341   3.3578
  5.335   3.3578
  5.330   3.3784
  5.324   3.3784
  5.319   3.3887
  5.313   3.3990
  5.308   3.4505
  5.302   3.4917
  5.297   3.5020
  5.291   3.4917
  5.286   3.5432
  5.281   3.5329
  5.275   3.5020
  5.270   3.5020
  5.265   3.5947
  5.259   3.6359
  5.254   3.6565
  5.249   3.6874
  5.243   3.6977
  5.238   3.6977
  5.233   3.7492
  5.227   3.7801
  5.222   3.8419
  5.217   3.8728
  5.212   3.9449
  5.206   3.9243
  5.201   3.9655
  5.196   3.9964
  5.191   3.9449
  5.186   3.9655
  5.180   4.0170
  5.175   4.0067
  5.170   4.0376
  5.165   4.0582
  5.160   4.0582
  5.155   4.0273
  5.150   4.0685
  5.145   4.1097
  5.139   4.1509
  5.134   4.1715
  5.129   4.2024
  5.124   4.1921
  5.119   4.1715
  5.114   4.1818
  5.109   4.1612
  5.104   4.1921
  5.099   4.2745
  5.094   4.3054
  5.089   4.3569
  5.084   4.3466
  5.079   4.3466
  5.074   4.3157
  5.069   4.2951
  5.064   4.2848
  5.059   4.3260
  5.054   4.3672
  5.049   4.3775
  5.044   4.3569
  5.040   4.3775
  5.035   4.3775
  5.030   4.4496
  5.025   4.4599
  5.020   4.4805
  5.015   4.5217
  5.010   4.5217
  5.005   4.5217
  5.001   4.5526
  4.996   4.5423
  4.991   4.6144
  4.986   4.6556
  4.981   4.6762
  4.977   4.7071
  4.972   4.7483
  4.967   4.7998
  4.962   4.9131
  4.958   4.9852
  4.953   5.0367
  4.948   5.0264
  4.943   5.0161
  4.939   5.0058
  4.934   5.1500
  4.929   5.2324
  4.925   5.2633
  4.920   5.2736
  4.915   5.2530
  4.911   5.2839
  4.906   5.3560
  4.901   5.4899
  4.897   5.6444
  4.892   5.6753
  4.888   5.6959
  4.883   5.8298
  4.878   5.9946
  4.874   6.0667
  4.869   6.1182
  4.865   6.1800
  4.860   6.2933
  4.856   6.3654
  4.851   6.4066
  4.846   6.4684
  4.842   6.5405
  4.837   6.5714
  4.833   6.6641
  4.828   6.7156
  4.824   6.7774
  4.819   6.7980
  4.815   6.8907
  4.810   6.9216
  4.806   6.9010
  4.802   6.9216
  4.797   6.9216
  4.793   6.9010
  4.788   6.9216
  4.784   6.8907
  4.779   6.9113
  4.775   6.9525
  4.771   6.9834
  4.766   7.0040
  4.762   7.1070
  4.758   7.1379
  4.753   7.1482
  4.749   7.1585
  4.744   7.2718
  4.740   7.3027
  4.736   7.3748
  4.731   7.4366
  4.727   7.4984
  4.723   7.4984
  4.719   7.5499
  4.714   7.5190
  4.710   7.5087
  4.706   7.5808
  4.701   7.7044
  4.697   7.6941
  4.693   7.6941
  4.689   7.6529
  4.684   7.6323
  4.680   7.5911
  4.676   7.6220
  4.672   7.7147
  4.668   7.7765
  4.663   7.7868
  4.659   7.8589
  4.655   7.9104
  4.651   8.0546
  4.647   8.1576
  4.643   8.2091
  4.638   8.2400
  4.634   8.3121
  4.630   8.4048
  4.626   8.5284
  4.622   8.6211
  4.618   8.7241
  4.614   8.7550
  4.610   8.8889
  4.605   8.9610
  4.601   9.0022
  4.597   9.0640
  4.593   9.1773
  4.589   9.2288
  4.585   9.2700
  4.581   9.3318
  4.577   9.4245
  4.573   9.4451
  4.569   9.4863
  4.565   9.5584
  4.561   9.6614
  4.557   9.6408
  4.553   9.6408
  4.549   9.6511
  4.545   9.6820
  4.541   9.7335
  4.537   9.7232
  4.533   9.7335
  4.529   9.8056
  4.525   9.7850
  4.521   9.7541
  4.517   9.7026
  4.513   9.6511
  4.509   9.5893
  4.505   9.5687
  4.502   9.5584
  4.498   9.5481
  4.494   9.5275
  4.490   9.5172
  4.486   9.4657
  4.482   9.4863
  4.478   9.4451
  4.474   9.4451
  4.470   9.5275
  4.467   9.5378
  4.463   9.5378
  4.459   9.5687
  4.455   9.5996
  4.451   9.6511
  4.447   9.8159
  4.444   9.9704
  4.440  10.0528
  4.436  10.1352
  4.432  10.1970
  4.428  10.2588
  4.425  10.3309
  4.421  10.4648
  4.417  10.5575
  4.413  10.5987
  4.410  10.6090
  4.406  10.6811
  4.402  10.7944
  4.398  11.0004
  4.395  11.1240
  4.391  11.1549
  4.387  11.2579
  4.384  11.3609
  4.380  11.4227
  4.376  11.6390
  4.372  11.8141
  4.369  11.9686
  4.365  12.0201
  4.361  12.0716
  4.358  12.2364
  4.354  12.3806
  4.350  12.4630
  4.347  12.5866
  4.343  12.6793
  4.340  12.7205
  4.336  12.7823
  4.332  12.8853
  4.329  12.9059
  4.325  13.0192
  4.321  13.1222
  4.318  13.2149
  4.314  13.2973
  4.311  13.3282
  4.307  13.3076
  4.304  13.3694
  4.300  13.4312
  4.296  13.5754
  4.293  13.6269
  4.289  13.6269
  4.286  13.6475
  4.282  13.7505
  4.279  13.7814
  4.275  13.8329
  4.272  13.8947
  4.268  13.9565
  4.265  13.9668
  4.261  14.0389
  4.258  14.0904
  4.254  14.1831
  4.251  14.2655
  4.247  14.3479
  4.244  14.3994
  4.240  14.4921
  4.237  14.5745
  4.233  14.6775
  4.230  14.7187
  4.226  14.7599
  4.223  14.6775
  4.219  14.6981
  4.216  14.7599
  4.213  14.7908
  4.209  14.7084
  4.206  14.6569
  4.202  14.6157
  4.199  14.5951
  4.196  14.6157
  4.192  14.6775
  4.189  14.7702
  4.185  14.9247
  4.182  14.9968
  4.179  15.0483
  4.175  15.0483
  4.172  15.0895
  4.169  15.1410
  4.165  15.1925
  4.162  15.2543
  4.159  15.3264
  4.155  15.2955
  4.152  15.2646
  4.149  15.3264
  4.145  15.4088
  4.142  15.4603
  4.139  15.5530
  4.135  15.5633
  4.132  15.5942
  4.129  15.5736
  4.126  15.6560
  4.122  15.7693
  4.119  15.8414
  4.116  15.9032
  4.112  15.9547
  4.109  15.9856
  4.106  16.0371
  4.103  16.0783
  4.099  16.1710
  4.096  16.1710
  4.093  16.1710
  4.090  16.2328
  4.086  16.2637
  4.083  16.2843
  4.080  16.3358
  4.077  16.3976
  4.074  16.5109
  4.070  16.5418
  4.067  16.5521
  4.064  16.5418
  4.061  16.5830
  4.058  16.5212
  4.055  16.5521
  4.051  16.5624
  4.048  16.5830
  4.045  16.5933
  4.042  16.5933
  4.039  16.5315
  4.036  16.5624
  4.032  16.5830
  4.029  16.6345
  4.026  16.6757
  4.023  16.6757
  4.020  16.5521
  4.017  16.5212
  4.014  16.5212
  4.011  16.5830
  4.008  16.6139
  4.004  16.6757
  4.001  16.6551
  3.998  16.6036
  3.995  16.6448
  3.992  16.6654
  3.989  16.6036
  3.986  16.6242
  3.983  16.6551
  3.980  16.7478
  3.977  16.7581
  3.974  16.8508
  3.971  16.9229
  3.968  16.9641
  3.965  16.8817
  3.962  16.7890
  3.959  16.7890
  3.956  16.9435
  3.953  17.0568
  3.950  16.9950
  3.947  16.9332
  3.944  17.0568
  3.941  17.1289
  3.938  17.1907
  3.935  17.2010
  3.932  17.1701
  3.929  17.1289
  3.926  17.1598
  3.923  17.1907
  3.920  17.2834
  3.917  17.2628
  3.914  17.2525
  3.911  17.2216
  3.908  17.1804
  3.905  17.1701
  3.902  17.1804
  3.899  17.1598
  3.896  17.1598
  3.893  17.1186
  3.890  17.1495
  3.887  17.1598
  3.884  17.1495
  3.882  16.9847
  3.879  16.9641
  3.876  17.0362
  3.873  17.0671
  3.870  17.0259
  3.867  17.0774
  3.864  16.9950
  3.861  16.9023
  3.858  16.9332
  3.856  16.9435
  3.853  16.9023
  3.850  16.8920
  3.847  16.8199
  3.844  16.7478
  3.841  16.7272
  3.838  16.8405
  3.836  16.7993
  3.833  16.7169
  3.830  16.7272
  3.827  16.7993
  3.824  16.8096
  3.822  16.7787
  3.819  16.6963
  3.816  16.6757
  3.813  16.7066
  3.810  16.7272
  3.807  16.6860
  3.805  16.6036
  3.802  16.5624
  3.799  16.5624
  3.796  16.5006
  3.794  16.4491
  3.791  16.4079
  3.788  16.4594
  3.785  16.3976
  3.782  16.4079
  3.780  16.2946
  3.777  16.2843
  3.774  16.2843
  3.771  16.2328
  3.769  16.0989
  3.766  16.0165
  3.763  15.9856
  3.761  15.9444
  3.758  15.8826
  3.755  15.8620
  3.752  15.8105
  3.750  15.8414
  3.747  15.7693
  3.744  15.6869
  3.742  15.6251
  3.739  15.5530
  3.736  15.3985
  3.733  15.3882
  3.731  15.3676
  3.728  15.3573
  3.725  15.3367
  3.723  15.3779
  3.720  15.3367
  3.717  15.2337
  3.715  15.1101
  3.712  15.0998
  3.709  15.1204
  3.707  15.1101
  3.704  15.0071
  3.702  14.9350
  3.699  14.8835
  3.696  14.8835
  3.694  14.8732
  3.691  14.8732
  3.688  14.8114
  3.686  14.7393
  3.683  14.7187
  3.680  14.7599
  3.678  14.6775
  3.675  14.6260
  3.673  14.6054
  3.670  14.5436
  3.667  14.4509
  3.665  14.4303
  3.662  14.4303
  3.660  14.4200
  3.657  14.2758
  3.655  14.1728
  3.652  14.1625
  3.649  14.0801
  3.647  14.0492
  3.644  14.1419
  3.642  14.0801
  3.639  13.9462
  3.637  13.8432
  3.634  13.8638
  3.632  13.8741
  3.629  13.7711
  3.626  13.7196
  3.624  13.7299
  3.621  13.6166
  3.619  13.5136
  3.616  13.3797
  3.614  13.3488
  3.611  13.2355
  3.609  13.1016
  3.606  13.0295
  3.604  13.0089
  3.601  12.9162
  3.599  12.8956
  3.596  12.7720
  3.594  12.6793
  3.591  12.7102
  3.589  12.7823
  3.586  12.6896
  3.584  12.4836
  3.581  12.3600
  3.579  12.2879
  3.576  12.2158
  3.574  12.1231
  3.571  12.0407
  3.569  12.0613
  3.567  11.8862
  3.564  11.7729
  3.562  11.7214
  3.559  11.7111
  3.557  11.5772
  3.554  11.5360
  3.552  11.5772
  3.549  11.4742
  3.547  11.3300
  3.545  11.1858
  3.542  11.1137
  3.540  11.0828
  3.537  11.0210
  3.535  10.9386
  3.533  10.7532
  3.530  10.6914
  3.528  10.6090
  3.525  10.5369
  3.523  10.4236
  3.521  10.3824
  3.518  10.3000
  3.516  10.1764
  3.513   9.9601
  3.511   9.8056
  3.509   9.6923
  3.506   9.5996
  3.504   9.5069
  3.502   9.4966
  3.499   9.5275
  3.497   9.5481
  3.494   9.4863
  3.492   9.5275
  3.490   9.5893
  3.487   9.5687
  3.485   9.5378
  3.483   9.5172
  3.480   9.3524
  3.478   9.2906
  3.476   9.3112
  3.473   9.3524
  3.471   9.2803
  3.469   9.2185
  3.466   9.1876
  3.464   9.1876
  3.462   9.1876
  3.460   9.2185
  3.457   9.1567
  3.455   9.0743
  3.453   8.8477
  3.450   8.8271
  3.448   8.8374
  3.446   8.8477
  3.443   8.7344
  3.441   8.6417
  3.439   8.5799
  3.437   8.5799
  3.434   8.4151
  3.432   8.2812
  3.430   8.2400
  3.428   8.1885
  3.425   8.0443
  3.423   8.0237
  3.421   7.9619
  3.418   7.9722
  3.416   7.9001
  3.414   7.6735
  3.412   7.5705
  3.409   7.6323
  3.407   7.6323
  3.405   7.6838
  3.403   7.7559
  3.401   7.8383
  3.398   7.8486
  3.396   7.9104
  3.394   7.9619
  3.392   7.8795
  3.389   7.7250
  3.387   7.7044
  3.385   7.6632
  3.383   7.6529
  3.381   7.7765
  3.378   7.7765
  3.376   7.6426
  3.374   7.7044
  3.372   7.7559
  3.370   7.6529
  3.367   7.5808
  3.365   7.6220
  3.363   7.5808
  3.361   7.6014
  3.359   7.5911
  3.357   7.6220
  3.354   7.6220
  3.352   7.6529
  3.350   7.6220
  3.348   7.5808
  3.346   7.5190
  3.344   7.5602
  3.341   7.7147
  3.339   7.6117
  3.337   7.5705
  3.335   7.6117
  3.333   7.4778
  3.331   7.3645
  3.329   7.2924
  3.326   7.3336
  3.324   7.4675
  3.322   7.5396
  3.320   7.3954
  3.318   7.4057
  3.316   7.3851
  3.314   7.2821
  3.312   7.1379
  3.309   7.2409
  3.307   7.2924
  3.305   7.2100
  3.303   6.9937
  3.301   6.8804
  3.299   6.9216
  3.297   6.9628
  3.295   6.8804
  3.293   6.8907
  3.291   6.8083
  3.288   6.7877
  3.286   6.8083
  3.284   6.7259
  3.282   6.6641
  3.280   6.7362
  3.278   6.7259
  3.276   6.7465
  3.274   6.7156
  3.272   6.6950
  3.270   6.6023
  3.268   6.4581
  3.266   6.3448
  3.264   6.4272
  3.262   6.4169
  3.259   6.3860
  3.257   6.3654
  3.255   6.4581
  3.253   6.4478
  3.251   6.3963
  3.249   6.3757
  3.247   6.4272
  3.245   6.3448
  3.243   6.2315
  3.241   6.2006
  3.239   6.2418
  3.237   6.2315
  3.235   6.1800
  3.233   6.1594
  3.231   6.1903
  3.229   6.1388
  3.227   6.0358
  3.225   6.0873
  3.223   6.2006
  3.221   6.1491
  3.219   6.1182
  3.217   6.0873
  3.215   6.0564
  3.213   6.0049
  3.211   5.9740
  3.209   5.9534
  3.207   5.8710
  3.205   5.8195
  3.203   5.8607
  3.201   5.7680
  3.199   5.7577
  3.197   5.7783
  3.195   5.9122
  3.193   5.8607
  3.191   5.7886
  3.189   5.7062
  3.187   5.7577
  3.185   5.7783
  3.183   5.7165
  3.182   5.5826
  3.180   5.5826
  3.178   5.5517
  3.176   5.4899
  3.174   5.5414
  3.172   5.5620
  3.170   5.4899
  3.168   5.5517
  3.166   5.4796
  3.164   5.3663
  3.162   5.2942
  3.160   5.3045
  3.158   5.2736
  3.156   5.1809
  3.154   5.0985
  3.152   5.1603
  3.151   5.1912
  3.149   5.2942
  3.147   5.2324
  3.145   5.1191
  3.143   5.1500
  3.141   5.0573
  3.139   4.9749
  3.137   4.9955
  3.135   4.9852
  3.133   5.0882
  3.132   4.9337
  3.130   4.7483
  3.128   4.7998
  3.126   4.9440
  3.124   4.8719
  3.122   4.9749
  3.120   5.0058
  3.118   4.9646
  3.117   4.8101
  3.115   4.6144
  3.113   4.5835
  3.111   4.6659
  3.109   4.7483
  3.107   4.8410
  3.105   4.6556
  3.103   4.5423
  3.102   4.5217
  3.100   4.5526
  3.098   4.5629
  3.096   4.5835
  3.094   4.5526
  3.092   4.5835
  3.091   4.5732
  3.089   4.6247
  3.087   4.6556
  3.085   4.6762
  3.083   4.5835
  3.081   4.5938
  3.079   4.4393
  3.078   4.3260
  3.076   4.3672
  3.074   4.3878
  3.072   4.3363
  3.070   4.4187
  3.069   4.3878
  3.067   4.3775
  3.065   4.4084
  3.063   4.4393
  3.061   4.3260
  3.060   4.2127
  3.058   4.1612
  3.056   4.1921
  3.054   4.2230
  3.052   4.3466
  3.051   4.3157
  3.049   4.3260
  3.047   4.3569
  3.045   4.3878
  3.043   4.3260
  3.042   4.1715
  3.040   4.0582
  3.038   4.2024
  3.036   4.3260
  3.034   4.3054
  3.033   4.1818
  3.031   4.2230
  3.029   4.1200
  3.027   4.1509
  3.026   4.2951
  3.024   4.2951
  3.022   4.1921
  3.020   4.1921
  3.019   4.1200
  3.017   4.2024
  3.015   4.1715
  3.013   4.1303
  3.012   4.1612
  3.010   4.2848
  3.008   4.2024
  3.006   4.1406
  3.005   4.0891
  3.003   4.1509
  3.001   4.2024
  2.999   4.1818
  2.998   4.2333
  2.996   4.3363
  2.994   4.0891
  2.992   4.0170
  2.991   4.2127
  2.989   4.2848
  2.987   4.1509
  2.986   4.1303
  2.984   4.2127
  2.982   4.1715
  2.980   4.0067
  2.979   4.1097
  2.977   4.1200
  2.975   4.1303
  2.974   4.1921
  2.972   4.4084
  2.970   4.2436
  2.968   3.9964
  2.967   3.8831
  2.965   3.9655
  2.963   4.0685
  2.962   4.1509
  2.960   4.1818
  2.958   4.0788
  2.957   4.0273
  2.955   4.1612
  2.953   4.2436
  2.952   4.3878
  2.950   4.2848
  2.948   4.1818
  2.947   3.9964
  2.945   3.8110
  2.943   3.7389
  2.942   3.8522
  2.940   4.0067
  2.938   4.0067
  2.937   3.9655
  2.935   4.1200
  2.933   4.2539
  2.932   4.1715
  2.930   3.9140
  2.928   3.9243
  2.927   4.0170
  2.925   4.1406
  2.923   4.0067
  2.922   4.1509
  2.920   4.1921
  2.918   4.1200
  2.917   3.9346
  2.915   4.0170
  2.913   3.9861
  2.912   4.0994
  2.910   4.3260
  2.909   4.3981
  2.907   4.3466
  2.905   4.2642
  2.904   4.1097
  2.902   3.9037
  2.900   3.9346
  2.899   4.2127
  2.897   4.2848
  2.896   4.2539
  2.894   4.2127
  2.892   4.2951
  2.891   4.1097
  2.889   4.0891
  2.887   4.1097
  2.886   4.0582
  2.884   4.1921
  2.883   4.3981
  2.881   4.4496
  2.879   4.4908
  2.878   4.2127
  2.876   4.2848
  2.875   4.5114
  2.873   4.4496
  2.871   4.2333
  2.870   4.2642
  2.868   4.3466
  2.867   4.3569
  2.865   4.2230
  2.864   4.1818
  2.862   4.1406
  2.860   4.2436
  2.859   4.5114
  2.857   4.5011
  2.856   4.2642
  2.854   4.3569
  2.853   4.3569
  2.851   4.2127
  2.849   4.0376
  2.848   4.2745
  2.846   4.7689
  2.845   4.8204
  2.843   4.5114
  2.842   4.3260
  2.840   4.2230
  2.838   4.3157
  2.837   4.3775
  2.835   4.4908
  2.834   4.2333
  2.832   4.1612
  2.831   4.3466
  2.829   4.3569
  2.828   4.3569
  2.826   4.3878
  2.825   4.3569
  2.823   4.4290
  2.821   4.4393
  2.820   4.3878
  2.818   4.1921
  2.817   4.0685
  2.815   4.1612
  2.814   4.2127
  2.812   4.1715
  2.811   4.4496
  2.809   4.6247
  2.808   4.4084
  2.806   4.1612
  2.805   4.0788
  2.803   4.0273
  2.802   4.2745
  2.800   4.2539
  2.799   3.9449
  2.797   3.9655
  2.796   4.3363
  2.794   4.2848
  2.793   4.1406
  2.791   4.0067
  2.790   3.9964
  2.788   3.8934
  2.787   3.8316
  2.785   3.8625
  2.784   3.8007
  2.782   3.7389
  2.781   3.8316
  2.779   3.7389
  2.778   3.5226
  2.776   3.5638
  2.775   3.7286
  2.773   3.6153
  2.772   3.6462
  2.770   3.5638
  2.769   3.2857
  2.767   3.1827
  2.766   3.2445
  2.764   3.1518
  2.763   3.0694
  2.761   2.9252
  2.760   2.9252
  2.758   2.7604
  2.757   2.7707
  2.756   2.7398
  2.754   2.9973
  2.753   3.1518
  2.751   3.1930
  2.750   3.2342
  2.748   3.2548
  2.747   3.2857
  2.745   3.3372
  2.744   3.2960
  2.742   3.3475
  2.741   3.3887
  2.740   3.3578
  2.738   3.2033
  2.737   3.2548
  2.735   3.2548
  2.734   3.2445
  2.732   3.2857
  2.731   3.3475
  2.729   3.4093
  2.728   3.5535
  2.727   3.5226
  2.725   3.5432
  2.724   3.6565
  2.722   3.7698
  2.721   3.8522
  2.719   4.0273
  2.718   4.1612
  2.717   3.9243
  2.715   3.6977
  2.714   3.8728
  2.712   3.9449
  2.711   3.9346
  2.709   3.6565
  2.708   3.6050
  2.707   3.5432
  2.705   3.5638
  2.704   3.5329
  2.702   3.6462
  2.701   3.6668
  2.700   3.6771
  2.698   3.8419
  2.697   3.9243
  2.695   4.2745
  2.694   5.0264
  2.693   5.3663
  2.691   5.7165
  2.690   6.1491
  2.688   6.7465
  2.687   7.4469
  2.686   8.0649
  2.684   8.7756
  2.683   9.4966
  2.681  10.1249
  2.680  10.7326
  2.679  11.0107
  2.677  11.5051
  2.676  12.3806
  2.675  12.9574
  2.673  13.3282
  2.672  13.5342
  2.670  13.9668
  2.669  14.5745
  2.668  14.9865
  2.666  15.4088
  2.665  15.7384
  2.664  16.0886
  2.662  16.3255
  2.661  16.7375
  2.659  17.1495
  2.658  17.6027
  2.657  17.8190
  2.655  17.8602
  2.654  18.1074
  2.653  18.5709
  2.651  18.5297
  2.650  18.5812
  2.649  19.0859
  2.647  19.6627
  2.646  19.5700
  2.645  19.7451
  2.643  20.0644
  2.642  20.0850
  2.640  20.3219
  2.639  20.7545
  2.638  20.7339
  2.636  20.8987
  2.635  20.9502
  2.634  21.0841
  2.632  21.3725
  2.631  21.5270
  2.630  21.8978
  2.628  22.1450
  2.627  22.0935
  2.626  22.2480
  2.624  22.1553
  2.623  22.0729
  2.622  22.1244
  2.620  22.4437
  2.619  22.6394
  2.618  22.6188
  2.617  22.4952
  2.615  22.6497
  2.614  22.7939
  2.613  22.9896
  2.611  23.1338
  2.610  23.4222
  2.609  23.4016
  2.607  23.2677
  2.606  23.3295
  2.605  23.6076
  2.603  23.7312
  2.602  23.7312
  2.601  23.6591
  2.599  23.9063
  2.598  24.0505
  2.597  23.9063
  2.596  23.8857
  2.594  24.1535
  2.593  24.2359
  2.592  24.1432
  2.590  24.3595
  2.589  24.2462
  2.588  24.1226
  2.586  24.6788
  2.585  24.8539
  2.584  24.7612
  2.583  24.7509
  2.581  24.6170
  2.580  24.5346
  2.579  24.8745
  2.577  25.2350
  2.576  25.2659
  2.575  25.0290
  2.574  25.0290
  2.572  25.0290
  2.571  24.9878
  2.570  25.0599
  2.569  25.0702
  2.567  25.2144
  2.566  25.6573
  2.565  26.0075
  2.563  25.9869
  2.562  26.0075
  2.561  26.0384
  2.560  25.8427
  2.558  26.1414
  2.557  26.1723
  2.556  26.0487
  2.555  26.1311
  2.553  26.2753
  2.552  26.1311
  2.551  26.2547
  2.550  26.4607
  2.548  26.4195
  2.547  26.3371
  2.546  26.4607
  2.545  26.4298
  2.543  26.7697
  2.542  26.6976
  2.541  26.3989
  2.540  26.7285
  2.538  27.0890
  2.537  27.0478
  2.536  26.8006
  2.535  26.9757
  2.533  27.2126
  2.532  26.9654
  2.531  26.9860
  2.530  27.0581
  2.528  27.1096
  2.527  27.0581
  2.526  26.9963
  2.525  27.3568
  2.524  27.6143
  2.522  27.5113
  2.521  27.4804
  2.520  27.3053
  2.519  27.4598
  2.517  27.4186
  2.516  27.3259
  2.515  27.3259
  2.514  27.5731
  2.513  28.2735
  2.511  28.4280
  2.510  28.0057
  2.509  28.2323
  2.508  28.3456
  2.506  27.9130
  2.505  27.7585
  2.504  27.9748
  2.503  28.1190
  2.502  28.2529
  2.500  28.2014
  2.497  28.2014
  2.493  28.0014
  2.489  28.0014
  2.485  28.3014
  2.481  28.5014
  2.477  28.5014
  2.473  28.8014
  2.469  29.1014
  2.465  29.5014
  2.461  29.9014
  2.457  30.1014
  2.453  30.6014
  2.449  31.1014
  2.445  31.5014
  2.441  32.1014
  2.437  32.3014
  2.433  32.6014
  2.429  33.2014
  2.425  33.8014
  2.421  34.1014
  2.417  34.6014
  2.413  35.1014
  2.409  35.2014
  2.405  35.7014
  2.401  36.1014
  2.397  36.5014
  2.393  36.7014
  2.389  36.9014
  2.385  37.2014
  2.381  37.6014
  2.377  37.8014
  2.373  37.8014
  2.369  38.4014
  2.365  38.8014
  2.361  39.3014
  2.357  39.4014
  2.353  40.0014
  2.349  40.1014
  2.345  40.7014
  2.341  41.1014
  2.337  41.6014
  2.333  41.8014
  2.329  42.3014
  2.325  42.8014
  2.321  43.3014
  2.317  43.7014
  2.313  43.8014
  2.309  44.0014
  2.305  44.3014
  2.301  43.4014
  2.297  44.8014
  2.293  44.2014
  2.289  44.4014
  2.285  45.0014
  2.281  46.1014
  2.277  46.7014
  2.273  47.0014
  2.269  47.4014
  2.265  47.6014
  2.261  47.7014
  2.257  47.7014
  2.253  47.9014
  2.249  47.8014
  2.245  48.1014
  2.241  47.3014
  2.237  47.2014
  2.233  47.4014
  2.229  47.2014
  2.225  46.7014
  2.221  46.4014
  2.217  46.0014
  2.213  45.9014
  2.209  45.4014
  2.205  45.5014
  2.201  45.6014
  2.197  46.4014
  2.193  46.8014
  2.189  47.4014
  2.185  48.3014
  2.181  49.4014
  2.177  50.4014
  2.173  51.2014
  2.169  52.1014
  2.165  52.8014
  2.161  53.6014
  2.157  53.9014
  2.153  54.7014
  2.149  55.1014
  2.145  55.4014
  2.141  56.0014
  2.137  56.9014
  2.133  57.0014
  2.129  56.7014
  2.125  57.0014
  2.121  57.3014
  2.117  57.7014
  2.113  57.6014
  2.109  57.8014
  2.105  57.6014
  2.101  57.7014
  2.097  57.6014
  2.093  57.7014
  2.089  57.7014
  2.085  57.8014
  2.081  58.1014
  2.077  57.7014
  2.073  57.5014
  2.069  57.2014
  2.065  56.9014
  2.061  56.9014
  2.057  56.7014
  2.053  56.5014
  2.049  56.5014
  2.045  56.1014
  2.041  55.9014
  2.037  55.4014
  2.033  54.9014
  2.029  54.4014
  2.025  53.7014
  2.021  52.6014
  2.017  52.0014
  2.013  51.5014
  2.009  51.0014
  2.005  50.3014
  2.001  49.8014
  1.997  49.0014
  1.993  48.4014
  1.989  47.8014
  1.985  47.0014
  1.981  46.4014
  1.977  45.9014
  1.973  45.3014
  1.969  45.1014
  1.965  44.8014
  1.961  44.2014
  1.957  43.3014
  1.953  42.6014
  1.949  42.0014
  1.945  41.5014
  1.941  40.9014
  1.937  40.7014
  1.933  40.1014
  1.929  39.4014
  1.925  38.4014
  1.921  37.6014
  1.917  36.7014
  1.913  36.1014
  1.909  36.0014
  1.905  36.7014
  1.901  37.9014
  1.897  40.1014
  1.893  43.5014
  1.889  46.7014
  1.885  50.4014
  1.881  54.7014
  1.877  58.6014
  1.873  61.5014
  1.869  63.7014
  1.865  65.3014
  1.861  67.5014
  1.857  69.7014
  1.853  71.5014
  1.849  72.5014
  1.845  72.8014
  1.841  73.2014
  1.837  73.5014
  1.833  73.6014
  1.829  73.9014
  1.825  74.2014
  1.821  74.3014
  1.817  74.7014
  1.813  74.6014
  1.809  74.7014
  1.805  74.7014
  1.801  74.9014
  1.797  74.8014
  1.793  74.7014
  1.789  74.7014
  1.785  74.8014
  1.781  75.2014
  1.777  75.5014
  1.773  75.8014
  1.769  75.8014
  1.765  76.1014
  1.761  76.4014
  1.757  76.4014
  1.753  76.3014
  1.749  76.1014
  1.745  76.0014
  1.741  76.4014
  1.737  76.9014
  1.733  76.9014
  1.729  76.9014
  1.725  77.0014
  1.721  76.6014
  1.717  76.9014
  1.713  77.0014
  1.709  76.9014
  1.705  76.9014
  1.701  77.1014
  1.697  77.1014
  1.693  77.2014
  1.689  77.4014
  1.685  77.5014
  1.681  77.5014
  1.677  77.6014
  1.673  77.4014
  1.669  77.2014
  1.665  77.5014
  1.661  77.5014
  1.657  77.6014
  1.653  77.1014
  1.649  76.9014
  1.645  76.8014
  1.641  76.9014
  1.637  76.4014
  1.633  76.5014
  1.629  76.9014
  1.625  77.4014
  1.621  77.0014
  1.617  76.9014
  1.613  76.3014
  1.609  75.8014
  1.605  75.8014
  1.601  75.8014
  1.597  75.3014
  1.593  75.5014
  1.589  74.8014
  1.585  74.9014
  1.581  75.0014
  1.577  75.2014
  1.573  75.0014
  1.569  74.6014
  1.565  74.1014
  1.561  74.1014
  1.557  73.9014
  1.553  73.3014
  1.549  73.1014
  1.545  73.3014
  1.541  73.7014
  1.537  73.2014
  1.533  73.1014
  1.529  73.0014
  1.525  72.0014
  1.521  71.9014
  1.517  70.9014
  1.513  70.4014
  1.509  70.0014
  1.505  69.7014
  1.501  68.9014
  1.497  68.8014
  1.493  68.5014
  1.489  68.0014
  1.485  67.7014
  1.481  67.2014
  1.477  66.7014
  1.473  65.9014
  1.469  65.4014
  1.465  64.9014
  1.461  64.7014
  1.457  64.4014
  1.453  64.4014
  1.449  64.2014
  1.445  63.6014
  1.441  62.5014
  1.437  61.0014
  1.433  59.8014
  1.429  58.6014
  1.425  57.3014
  1.421  56.5014
  1.417  55.3014
  1.413  53.9014
  1.409  53.6014
  1.405  53.9014
  1.401  54.9014
  1.397  57.2014
  1.393  59.5014
  1.389  61.0014
  1.385  63.7014
  1.381  65.8014
  1.377  66.5014
  1.373  68.7014
  1.369  71.0014
  1.365  71.5014
  1.361  71.1014
  1.357  71.1014
  1.353  72.0014
  1.349  72.4014
  1.345  73.1014
  1.341  73.0014
  1.337  73.2014
  1.333  73.1014
  1.329  73.3014
  1.325  73.2014
  1.321  73.3014
  1.317  73.3014
  1.313  73.2014
  1.309  73.1014
  1.305  72.1014
  1.301  71.7014
  1.297  71.5014
  1.293  71.3014
  1.289  71.3014
  1.285  71.1014
  1.281  70.8014
  1.277  70.4014
  1.273  71.0014
  1.269  71.0014
  1.265  70.9014
  1.261  70.5014
  1.257  70.4014
  1.253  70.0014
  1.249  69.8014
  1.245  69.2014
  1.241  69.2014
  1.237  68.9014
  1.233  68.6014
  1.229  68.3014
  1.225  68.5014
  1.221  68.5014
  1.217  68.0014
  1.213  67.5014
  1.209  67.2014
  1.205  67.0014
  1.201  66.6014
  1.197  66.4014
  1.193  66.1014
  1.189  65.9014
  1.185  65.6014
  1.181  65.6014
  1.177  65.5014
  1.173  65.5014
  1.169  65.3014
  1.165  64.9014
  1.161  64.7014
  1.157  64.3014
  1.153  64.1014
  1.149  63.8014
  1.145  63.7014
  1.141  64.1014
  1.137  63.9014
  1.133  63.3014
  1.129  63.1014
  1.125  62.5014
  1.121  63.3014
  1.117  62.8014
  1.113  62.3014
  1.109  62.1014
  1.105  62.0014
  1.101  61.9014
  1.097  61.7014
  1.093  61.4014
  1.089  61.4014
  1.085  60.9014
  1.081  60.8014
  1.077  60.5014
  1.073  60.6014
  1.069  60.6014
  1.065  60.4014
  1.061  60.4014
  1.057  60.0014
  1.053  60.1014
  1.049  59.9014
  1.045  59.3014
  1.041  59.0014
  1.037  58.6014
  1.033  59.0014
  1.029  58.9014
  1.025  58.9014
  1.021  58.6014
  1.017  58.4014
  1.013  58.1014
  1.009  57.7014
  1.005  58.1014
  1.001  57.7014
  0.997  57.6014
  0.993  58.2014
  0.989  57.8014
  0.985  57.2014
  0.981  57.3014
  0.977  57.2014
  0.973  56.9014
  0.969  56.5014
  0.965  56.5014
  0.961  56.6014
  0.957  56.4014
  0.953  56.4014
  0.949  56.1014
  0.945  56.1014
  0.941  56.1014
  0.937  56.1014
  0.933  56.1014
  0.929  56.0014
  0.925  55.8014
  0.921  55.9014
  0.917  55.8014
  0.913  55.6014
  0.909  55.4014
  0.905  55.5014
  0.901  55.5014
  0.897  55.4014
  0.893  55.4014
  0.889  55.3014
  0.885  55.4014
  0.881  55.3014
  0.877  55.5014
  0.873  55.1014
  0.869  55.4014
  0.865  55.4014
  0.861  55.5014
  0.857  55.4014
  0.853  55.9014
  0.849  55.9014
  0.845  56.1014
  0.841  55.9014
  0.837  56.5014
  0.833  56.4014
  0.829  56.7014
  0.825  56.7014
  0.821  56.6014
  0.817  57.3014
  0.813  57.3014
  0.809  57.5014
  0.805  57.3014
  0.804  56.6014
  0.803  57.2014
  0.802  57.1014
  0.801  57.0014
  0.800  57.1014
  0.799  57.0014
  0.798  57.0014
  0.797  57.1014
  0.796  57.2014
  0.795  56.8014
  0.794  56.7014
  0.793  56.5014
  0.792  56.8014
  0.791  57.2014
  0.790  57.1014
  0.789  57.0014
  0.788  57.0014
  0.787  56.7014
  0.786  57.1014
  0.785  57.1014
  0.784  57.1014
  0.783  56.8014
  0.782  56.7014
  0.781  56.5014
  0.780  56.5014
  0.779  56.5014
  0.778  56.7014
  0.777  56.5014
  0.776  56.6014
  0.775  56.4014
  0.774  56.4014
  0.773  56.5014
  0.772  56.5014
  0.771  56.2014
  0.770  56.0014
  0.769  56.2014
  0.768  56.1014
  0.767  56.1014
  0.766  56.0014
  0.765  55.9014
  0.764  55.6014
  0.763  55.6014
  0.762  55.5014
  0.761  55.9014
  0.760  56.0014
  0.759  56.2014
  0.758  56.0014
  0.757  55.7014
  0.756  55.6014
  0.755  55.0014
  0.754  55.0014
  0.753  55.6014
  0.752  55.4014
  0.751  55.4014
  0.750  54.8014
  0.749  54.6014
  0.748  54.8014
  0.747  54.6014
  0.746  54.8014
  0.745  54.9014
  0.744  55.0014
  0.743  54.6014
  0.742  54.2014
  0.741  53.9014
  0.740  53.9014
  0.739  54.3014
  0.738  54.0014
  0.737  54.0014
  0.736  54.2014
  0.735  53.9014
  0.734  53.7014
  0.733  53.9014
  0.732  53.9014
  0.731  53.9014
  0.730  53.4014
  0.729  53.7014
  0.728  53.4014
  0.727  52.9014
  0.726  52.8014
  0.725  53.1014
  0.724  53.1014
  0.723  53.3014
  0.722  53.1014
  0.721  53.2014
  0.720  53.1014
  0.719  52.4014
  0.718  52.2014
  0.717  52.1014
  0.716  52.1014
  0.715  51.7014
  0.714  52.0014
  0.713  52.0014
  0.712  52.1014
  0.711  52.4014
  0.710  52.3014
  0.709  52.1014
  0.708  51.5014
  0.707  51.6014
  0.706  51.3014
  0.705  51.0014
  0.704  51.2014
  0.703  51.7014
  0.702  49.9014
  0.701  50.2014
  0.700  50.1014
  0.699  50.1014
  0.698  49.9014
  0.697  49.8014
  0.696  49.8014
  0.695  49.8014
  0.694  49.4014
  0.693  49.5014
  0.692  49.4014
  0.691  49.8014
  0.690  49.6014
  0.689  49.3014
  0.688  49.0014
  0.687  49.0014
  0.686  48.8014
  0.685  48.8014
  0.684  49.0014
  0.683  48.9014
  0.682  48.8014
  0.681  48.8014
  0.680  48.7014
  0.679  48.5014
  0.678  48.4014
  0.677  48.4014
  0.676  48.3014
  0.675  48.4014
  0.674  48.2014
  0.673  47.9014
  0.672  47.8014
  0.671  48.0014
  0.670  48.0014
  0.669  47.9014
  0.668  48.0014
  0.667  47.9014
  0.666  47.7014
  0.665  47.6014
  0.664  47.6014
  0.663  47.2014
  0.662  47.3014
  0.661  47.2014
  0.660  47.0014
  0.659  47.2014
  0.658  47.3014
  0.657  47.4014
  0.656  47.0014
  0.655  47.2014
  0.654  46.8014
  0.653  46.6014
  0.652  46.6014
  0.651  46.6014
  0.650  46.5014
  0.649  46.6014
  0.648  46.6014
  0.647  46.3014
  0.646  46.3014
  0.645  46.6014
  0.644  46.2014
  0.643  46.1014
  0.642  46.3014
  0.641  45.9014
  0.640  45.9014
  0.639  46.0014
  0.638  46.0014
  0.637  46.0014
  0.636  45.7014
  0.635  45.9014
  0.634  45.7014
  0.633  45.7014
  0.632  45.4014
  0.631  45.4014
  0.630  45.5014
  0.629  45.4014
  0.628  45.1014
  0.627  45.1014
  0.626  45.0014
  0.625  45.0014
  0.624  44.9014
  0.623  45.0014
  0.622  45.1014
  0.621  45.0014
  0.620  45.0014
  0.619  45.2014
  0.618  45.2014
  0.617  45.1014
  0.616  45.2014
  0.615  45.2014
  0.614  45.2014
  0.613  45.4014
  0.612  45.0014
  0.611  44.5014
  0.610  44.3014
  0.609  44.3014
  0.608  44.0014
  0.607  43.9014
  0.606  43.8014
  0.605  43.8014
  0.604  43.7014
  0.603  44.4014
  0.602  44.0014
  0.601  43.9014
  0.600  44.0014
  0.599  43.9014
  0.598  43.5014
  0.597  43.5014
  0.596  43.4014
  0.595  43.2014
  0.594  43.5014
  0.593  43.3014
  0.592  43.0014
  0.591  42.8014
  0.590  42.9014
  0.589  42.8014
  0.588  42.7014
  0.587  42.6014
  0.586  42.7014
  0.585  42.6014
  0.584  42.3014
  0.583  42.4014
  0.582  42.3014
  0.581  42.2014
  0.580  41.8014
  0.579  41.7014
  0.578  41.3014
  0.577  41.3014
  0.576  41.6014
  0.575  41.6014
  0.574  41.3014
  0.573  41.3014
  0.572  41.5014
  0.571  41.3014
  0.570  41.1014
  0.569  41.0014
  0.568  41.0014
  0.567  40.6014
  0.566  40.5014
  0.565  40.5014
  0.564  40.2014
  0.563  39.9014
  0.562  40.1014
  0.561  40.0014
  0.560  40.0014
  0.559  39.6014
  0.558  39.5014
  0.557  39.3014
  0.556  39.0014
  0.555  38.9014
  0.554  38.6014
  0.553  38.4014
  0.552  37.8014
  0.551  38.0014
  0.550  37.8014
  0.549  37.7014
  0.548  36.9014
  0.547  36.9014
  0.546  36.7014
  0.545  37.1014
  0.544  36.6014
  0.543  36.3014
  0.542  36.1014
  0.541  35.5014
  0.540  35.2014
  0.539  35.0014
  0.538  34.6014
  0.537  34.6014
  0.536  34.7014
  0.535  34.1014
  0.534  34.0014
  0.533  34.1014
  0.532  33.9014
  0.531  33.6014
  0.530  33.4014
  0.529  33.2014
  0.528  32.9014
  0.527  32.7014
  0.526  32.4014
  0.525  32.2014
  0.524  31.8014
  0.523  31.7014
  0.522  31.6014
  0.521  31.1014
  0.520  31.0014
  0.519  30.7014
  0.518  30.6014
  0.517  30.5014
  0.516  30.1014
  0.515  30.0014
  0.514  29.9014
  0.513  29.7014
  0.512  29.5014
  0.511  29.6014
  0.510  29.1014
  0.509  28.8014
  0.508  28.8014
  0.507  28.5014
  0.506  28.5014
  0.505  28.1014
  0.504  27.9014
  0.503  28.1014
  0.502  27.8014
  0.501  27.4014
  0.500  27.3014
  0.499  26.8014
  0.498  26.9014
  0.497  26.8014
  0.496  26.6014
  0.495  26.3014
  0.494  25.9014
  0.493  25.9014
  0.492  26.1014
  0.491  25.9014
  0.490  25.8014
  0.489  25.7014
  0.488  25.6014
  0.487  25.5014
  0.486  25.3014
  0.485  25.3014
  0.484  25.1014
  0.483  24.9014
  0.482  24.7014
  0.481  24.9014
  0.480  24.7014
  0.479  24.5014
  0.478  24.6014
  0.477  24.4014
  0.476  24.6014
  0.475  24.5014
  0.474  24.5014
  0.473  24.6014
  0.472  24.6014
  0.471  24.5014
  0.470  24.4014
  0.469  24.4014
  0.468  24.2014
  0.467  24.0014
  0.466  24.2014
  0.465  24.0014
  0.464  23.5014
  0.463  23.4014
  0.462  23.3014
  0.461  22.9014
  0.460  22.9014
  0.459  22.7014
  0.458  22.5014
  0.457  22.3014
  0.456  21.9014
  0.455  22.0014
  0.454  21.9014
  0.453  21.7014
  0.452  21.6014
  0.451  21.3014
  0.450  21.3014
  0.449  21.3014
  0.448  21.3014
  0.447  20.9014
  0.446  20.8014
  0.445  20.7014
  0.444  20.6014
  0.443  20.7014
  0.442  20.7014
  0.441  20.6014
  0.440  20.6014
  0.439  20.3014
  0.438  20.3014
  0.437  20.3014
  0.436  20.2014
  0.435  20.0014
  0.434  19.8014
  0.433  20.0014
  0.432  20.0014
  0.431  19.6014
  0.430  19.6014
  0.429  19.6014
  0.428  19.7014
  0.427  19.7014
  0.426  19.6014
  0.425  19.5014
  0.424  19.4014
  0.423  19.2014
  0.422  19.1014
  0.421  19.1014
  0.420  19.0014
  0.419  19.0014
  0.418  18.6014
  0.417  18.7014
  0.416  18.5014
  0.415  18.5014
  0.414  18.4014
  0.413  18.5014
  0.412  18.4014
  0.411  18.4014
  0.410  18.3014
  0.409  18.3014
  0.408  18.3014
  0.407  18.0014
  0.406  17.9014
  0.405  17.8014
