Name: Rhyolite
Type: Rock
Class: Igneous
Subclass: Felsic
Particle Size: Whole Rock Chips
Sample No.: AP-939-220a
Owner: United States Geological Survey, L. C. Rowan
Wavelength range: 0.405 - 14.05 um
Origin: Iberian Pyrite Belt, Spain

Description: Rhyolite, white, altered





Measurement: Directional Hemispherical Reflectance
First Column: X
Second Column: Y
X Units: Wavelength (micrometers)
Y Units: Reflectance (percent)
First X Value: 14.05105
Last X Value: 0.40500
Number of X Values: 2530
Additional Information: rhy220aa.txt

 14.051   2.5235
 14.013   2.4411
 13.975   2.7604
 13.938   2.8222
 13.900   2.8119
 13.863   2.7707
 13.826   2.8634
 13.790   2.8222
 13.753   2.8943
 13.717   2.8222
 13.680   2.9252
 13.644   2.9252
 13.609   2.9046
 13.573   2.7707
 13.538   2.8222
 13.502   2.9046
 13.467   3.0797
 13.432   2.9664
 13.398   2.9046
 13.363   2.9870
 13.329   3.1415
 13.295   3.1415
 13.261   3.2136
 13.227   3.1312
 13.193   3.1312
 13.160   3.1621
 13.126   3.2960
 13.093   3.3475
 13.060   3.5226
 13.027   3.5123
 12.995   3.5329
 12.962   3.5947
 12.930   3.7595
 12.898   3.8419
 12.866   4.0479
 12.834   4.1612
 12.802   4.3260
 12.771   4.3363
 12.739   4.1818
 12.708   4.0170
 12.677   4.0376
 12.646   3.8110
 12.616   3.6050
 12.585   3.5329
 12.554   3.7595
 12.524   3.9140
 12.494   4.0170
 12.464   3.8934
 12.434   3.8522
 12.404   3.6771
 12.375   3.4505
 12.345   3.1106
 12.316   2.9355
 12.287   2.7707
 12.258   2.7913
 12.229   2.7707
 12.200   2.8634
 12.171   2.9664
 12.143   3.1518
 12.115   3.1106
 12.086   3.1518
 12.058   3.1621
 12.030   3.2960
 12.002   3.3475
 11.975   3.4505
 11.947   3.5020
 11.920   3.6256
 11.892   3.5844
 11.865   3.6359
 11.838   3.7389
 11.811   3.8728
 11.784   3.8213
 11.757   3.9346
 11.731   3.9346
 11.704   3.9243
 11.678   3.9346
 11.652   4.0479
 11.626   4.1612
 11.600   4.2951
 11.574   4.2024
 11.548   4.2024
 11.522   4.2333
 11.497   4.3981
 11.471   4.4908
 11.446   4.6041
 11.421   4.5938
 11.396   4.6865
 11.371   4.6556
 11.346   4.6556
 11.321   4.6865
 11.297   4.8513
 11.272   4.9440
 11.248   5.0573
 11.223   5.1706
 11.199   5.3354
 11.175   5.4384
 11.151   5.5929
 11.127   5.6032
 11.103   5.6753
 11.079   5.8401
 11.056   6.0461
 11.032   6.1182
 11.009   6.2830
 10.985   6.3963
 10.962   6.5817
 10.939   6.5920
 10.916   6.4993
 10.893   6.2212
 10.870   5.9740
 10.848   5.7062
 10.825   5.5311
 10.802   5.3766
 10.780   5.3251
 10.758   5.2015
 10.735   5.2427
 10.713   5.2221
 10.691   5.2839
 10.669   5.3457
 10.647   5.4075
 10.625   5.4178
 10.604   5.4384
 10.582   5.4281
 10.560   5.4796
 10.539   5.5002
 10.518   5.6135
 10.496   5.6650
 10.475   5.7577
 10.454   5.8298
 10.433   6.1800
 10.412   6.4169
 10.391   6.5199
 10.370   6.6023
 10.350   6.7980
 10.329   6.9834
 10.309   7.1997
 10.288   7.3954
 10.268   7.6735
 10.247   7.8383
 10.227   8.0546
 10.207   8.2194
 10.187   8.4048
 10.167   8.5902
 10.147   8.8168
 10.127   8.9713
 10.108   9.2700
 10.088   9.6408
 10.068  10.0219
 10.049  10.3412
 10.029  10.7429
 10.010  11.1137
  9.991  11.6081
  9.972  12.0922
  9.952  12.5969
  9.933  13.0501
  9.914  13.3900
  9.895  13.4312
  9.877  13.3900
  9.858  13.2046
  9.839  13.0295
  9.821  12.9162
  9.802  12.8750
  9.783  12.8338
  9.765  13.1634
  9.747  13.6784
  9.728  14.3170
  9.710  14.9144
  9.692  15.6148
  9.674  16.3461
  9.656  17.0362
  9.638  17.5203
  9.620  17.9838
  9.602  18.3546
  9.585  18.6327
  9.567  18.8902
  9.549  19.2404
  9.532  19.5803
  9.514  19.8687
  9.497  20.0232
  9.479  20.1983
  9.462  20.2189
  9.445  20.2498
  9.428  20.2910
  9.411  20.4455
  9.394  20.5691
  9.377  20.6206
  9.360  20.4764
  9.343  20.3116
  9.326  20.2498
  9.309  20.1777
  9.293  19.8172
  9.276  19.5288
  9.259  19.3537
  9.243  19.1477
  9.226  18.9211
  9.210  18.8284
  9.194  18.6945
  9.178  18.6121
  9.161  18.4267
  9.145  18.1589
  9.129  17.7263
  9.113  17.2525
  9.097  16.7375
  9.081  16.1092
  9.065  15.2852
  9.049  14.5127
  9.034  13.7505
  9.018  13.1222
  9.002  12.7411
  8.987  12.6072
  8.971  12.7205
  8.956  13.0604
  8.940  13.4724
  8.925  13.9977
  8.909  14.3994
  8.894  14.7908
  8.879  15.1101
  8.864  15.4191
  8.849  15.5942
  8.834  15.6869
  8.819  15.6972
  8.804  15.6560
  8.789  15.5221
  8.774  15.3470
  8.759  15.0792
  8.744  14.8938
  8.730  14.6054
  8.715  14.3067
  8.700  13.9977
  8.686  13.6784
  8.671  13.1634
  8.657  12.5763
  8.642  11.9480
  8.628  11.3506
  8.614  11.0004
  8.599  11.2167
  8.585  11.5875
  8.571  11.9789
  8.557  12.2467
  8.543  12.3909
  8.529  12.3703
  8.515  12.2982
  8.501  12.2776
  8.487  12.3497
  8.473  12.2467
  8.459  12.1849
  8.445  12.0922
  8.431  12.0304
  8.418  11.9377
  8.404  11.9377
  8.391  11.9377
  8.377  11.8656
  8.363  11.6802
  8.350  11.5154
  8.337  11.3506
  8.323  11.2991
  8.310  11.1858
  8.297  11.1137
  8.283  11.0210
  8.270  11.0313
  8.257  10.9592
  8.244  10.8871
  8.231  10.8253
  8.218  10.8253
  8.205  10.8356
  8.192  10.8459
  8.179  10.6914
  8.166  10.5266
  8.153  10.3309
  8.140  10.0013
  8.128   9.4657
  8.115   8.9919
  8.102   8.5387
  8.090   8.0958
  8.077   7.5705
  8.064   7.1070
  8.052   6.6744
  8.039   6.3345
  8.027   5.9328
  8.015   5.6341
  8.002   5.2633
  7.990   4.9749
  7.978   4.7174
  7.965   4.5526
  7.953   4.3260
  7.941   4.0170
  7.929   3.7595
  7.917   3.6256
  7.905   3.3681
  7.893   3.1415
  7.881   2.9458
  7.869   2.8222
  7.857   2.6883
  7.845   2.5544
  7.833   2.4617
  7.821   2.3999
  7.809   2.2969
  7.798   2.2866
  7.786   2.2557
  7.774   2.2660
  7.763   2.1939
  7.751   2.1836
  7.739   2.1630
  7.728   2.1115
  7.716   2.0188
  7.705   1.9879
  7.694   1.9570
  7.682   1.9776
  7.671   1.8952
  7.659   1.8437
  7.648   1.8231
  7.637   1.8437
  7.626   1.7922
  7.614   1.6892
  7.603   1.6789
  7.592   1.7510
  7.581   1.6686
  7.570   1.6274
  7.559   1.5656
  7.548   1.5862
  7.537   1.6068
  7.526   1.6377
  7.515   1.6171
  7.504   1.5553
  7.493   1.4832
  7.483   1.4832
  7.472   1.5038
  7.461   1.5038
  7.450   1.4729
  7.440   1.5244
  7.429   1.4729
  7.418   1.4626
  7.408   1.5141
  7.397   1.5862
  7.387   1.5244
  7.376   1.5038
  7.366   1.5038
  7.355   1.5038
  7.345   1.4729
  7.334   1.5553
  7.324   1.5553
  7.314   1.4626
  7.303   1.4111
  7.293   1.4523
  7.283   1.4729
  7.273   1.5347
  7.263   1.5862
  7.252   1.6377
  7.242   1.5862
  7.232   1.5141
  7.222   1.5759
  7.212   1.6480
  7.202   1.6068
  7.192   1.5656
  7.182   1.5553
  7.172   1.6377
  7.162   1.6686
  7.152   1.6686
  7.143   1.6583
  7.133   1.6583
  7.123   1.6583
  7.113   1.6892
  7.103   1.6789
  7.094   1.7304
  7.084   1.7407
  7.074   1.7716
  7.065   1.7201
  7.055   1.7510
  7.046   1.8025
  7.036   1.8025
  7.026   1.6995
  7.017   1.7098
  7.007   1.7510
  6.998   1.7716
  6.989   1.7407
  6.979   1.7407
  6.970   1.7819
  6.960   1.8025
  6.951   1.7613
  6.942   1.8540
  6.932   1.8643
  6.923   1.8231
  6.914   1.8437
  6.905   1.9055
  6.896   1.8643
  6.886   1.8952
  6.877   1.8849
  6.868   1.8746
  6.859   1.8746
  6.850   1.9055
  6.841   1.9261
  6.832   1.9570
  6.823   1.8952
  6.814   1.8952
  6.805   1.9570
  6.796   1.9879
  6.787   1.9261
  6.778   1.9261
  6.770   1.9673
  6.761   1.9570
  6.752   1.9158
  6.743   1.9673
  6.734   2.0085
  6.726   2.0394
  6.717   2.0497
  6.708   2.0497
  6.700   2.0085
  6.691   2.0394
  6.682   2.0394
  6.674   2.0394
  6.665   2.0497
  6.657   2.0909
  6.648   2.0909
  6.640   2.1321
  6.631   2.1218
  6.623   2.1527
  6.614   2.1527
  6.606   2.1939
  6.597   2.1836
  6.589   2.1630
  6.581   2.1836
  6.572   2.2145
  6.564   2.1939
  6.556   2.1733
  6.547   2.1630
  6.539   2.1527
  6.531   2.1424
  6.523   2.1733
  6.514   2.2454
  6.506   2.3278
  6.498   2.3793
  6.490   2.4308
  6.482   2.4102
  6.474   2.4102
  6.466   2.4308
  6.458   2.5029
  6.450   2.4617
  6.442   2.4514
  6.434   2.4823
  6.426   2.4720
  6.418   2.4514
  6.410   2.4617
  6.402   2.4514
  6.394   2.4308
  6.386   2.3896
  6.378   2.4514
  6.370   2.4514
  6.363   2.4411
  6.355   2.4514
  6.347   2.4102
  6.339   2.3381
  6.332   2.3381
  6.324   2.3175
  6.316   2.3072
  6.308   2.3175
  6.301   2.3278
  6.293   2.2763
  6.286   2.2351
  6.278   2.2145
  6.270   2.1939
  6.263   2.1630
  6.255   2.1733
  6.248   2.1836
  6.240   2.2042
  6.233   2.1424
  6.225   2.1527
  6.218   2.2145
  6.210   2.1939
  6.203   2.1012
  6.195   2.0703
  6.188   2.0703
  6.181   2.1115
  6.173   2.0703
  6.166   2.1321
  6.159   2.1424
  6.151   2.0909
  6.144   2.1630
  6.137   2.2351
  6.130   2.2042
  6.122   2.1836
  6.115   2.1630
  6.108   2.2248
  6.101   2.2763
  6.094   2.2660
  6.086   2.2969
  6.079   2.3381
  6.072   2.2351
  6.065   2.2248
  6.058   2.2454
  6.051   2.2351
  6.044   2.2351
  6.037   2.2866
  6.030   2.3587
  6.023   2.3587
  6.016   2.3381
  6.009   2.3381
  6.002   2.3072
  5.995   2.3587
  5.988   2.3896
  5.981   2.3690
  5.974   2.3690
  5.967   2.4205
  5.960   2.3793
  5.954   2.3793
  5.947   2.4205
  5.940   2.4102
  5.933   2.3587
  5.926   2.4205
  5.920   2.4514
  5.913   2.4308
  5.906   2.4720
  5.899   2.5132
  5.893   2.5029
  5.886   2.5338
  5.879   2.5441
  5.873   2.5956
  5.866   2.6162
  5.859   2.6368
  5.853   2.6986
  5.846   2.7295
  5.840   2.7810
  5.833   2.8634
  5.827   2.8531
  5.820   2.8943
  5.813   2.9252
  5.807   2.9149
  5.800   2.8943
  5.794   2.9664
  5.788   2.9870
  5.781   2.9870
  5.775   2.9767
  5.768   2.9973
  5.762   3.0282
  5.755   3.0488
  5.749   3.0385
  5.743   3.0694
  5.736   3.0900
  5.730   3.0694
  5.724   3.0694
  5.717   3.1106
  5.711   3.1209
  5.705   3.1415
  5.698   3.1930
  5.692   3.1930
  5.686   3.1827
  5.680   3.1724
  5.674   3.1209
  5.667   3.0488
  5.661   2.9664
  5.655   2.9664
  5.649   3.0385
  5.643   3.0385
  5.637   2.9561
  5.630   2.9458
  5.624   2.9252
  5.618   2.9149
  5.612   2.9149
  5.606   2.9458
  5.600   2.9458
  5.594   2.9046
  5.588   2.8943
  5.582   2.9458
  5.576   2.9149
  5.570   2.9149
  5.564   2.9355
  5.558   2.9458
  5.552   2.9458
  5.546   2.9767
  5.540   2.9973
  5.534   3.0385
  5.528   3.0282
  5.523   3.0488
  5.517   3.0591
  5.511   3.0797
  5.505   3.1312
  5.499   3.2136
  5.493   3.2239
  5.487   3.1930
  5.482   3.2239
  5.476   3.2857
  5.470   3.2754
  5.464   3.3166
  5.459   3.4196
  5.453   3.4711
  5.447   3.4711
  5.441   3.4608
  5.436   3.4608
  5.430   3.5020
  5.424   3.5020
  5.419   3.4814
  5.413   3.4402
  5.407   3.4196
  5.402   3.3887
  5.396   3.3166
  5.390   3.2445
  5.385   3.2033
  5.379   3.1930
  5.374   3.2033
  5.368   3.2033
  5.363   3.2239
  5.357   3.1930
  5.352   3.1724
  5.346   3.2136
  5.341   3.1827
  5.335   3.1621
  5.330   3.1930
  5.324   3.2239
  5.319   3.2651
  5.313   3.2857
  5.308   3.3063
  5.302   3.3269
  5.297   3.3269
  5.291   3.3269
  5.286   3.3578
  5.281   3.4093
  5.275   3.4505
  5.270   3.4814
  5.265   3.5020
  5.259   3.5741
  5.254   3.6462
  5.249   3.6668
  5.243   3.7492
  5.238   3.8110
  5.233   3.8213
  5.227   3.9243
  5.222   4.0273
  5.217   4.0788
  5.212   4.2024
  5.206   4.3466
  5.201   4.3775
  5.196   4.3672
  5.191   4.4187
  5.186   4.4702
  5.180   4.4702
  5.175   4.4805
  5.170   4.5217
  5.165   4.5526
  5.160   4.5732
  5.155   4.5732
  5.150   4.5629
  5.145   4.6144
  5.139   4.6453
  5.134   4.6350
  5.129   4.6247
  5.124   4.5938
  5.119   4.6762
  5.114   4.8101
  5.109   4.8513
  5.104   4.8307
  5.099   4.8616
  5.094   4.8719
  5.089   4.8616
  5.084   4.8822
  5.079   4.9028
  5.074   4.8616
  5.069   4.8307
  5.064   4.8101
  5.059   4.8410
  5.054   4.8719
  5.049   4.8616
  5.044   4.8513
  5.040   4.8410
  5.035   4.8822
  5.030   4.9543
  5.025   5.0367
  5.020   5.0161
  5.015   5.0161
  5.010   5.0367
  5.005   5.0264
  5.001   5.0161
  4.996   5.0470
  4.991   5.0676
  4.986   5.1088
  4.981   5.2221
  4.977   5.3148
  4.972   5.4075
  4.967   5.5208
  4.962   5.6341
  4.958   5.7371
  4.953   5.8710
  4.948   5.9431
  4.943   6.0049
  4.939   6.1079
  4.934   6.1594
  4.929   6.2006
  4.925   6.2830
  4.920   6.4375
  4.915   6.5920
  4.911   6.7259
  4.906   6.8392
  4.901   7.0246
  4.897   7.2821
  4.892   7.5602
  4.888   7.7662
  4.883   8.0031
  4.878   8.2400
  4.874   8.4872
  4.869   8.7241
  4.865   8.8992
  4.860   9.0640
  4.856   9.2082
  4.851   9.3112
  4.846   9.4657
  4.842   9.6305
  4.837   9.7644
  4.833   9.8983
  4.828  10.0219
  4.824  10.0631
  4.819  10.1249
  4.815  10.2485
  4.810  10.3103
  4.806  10.4030
  4.802  10.4957
  4.797  10.5575
  4.793  10.6296
  4.788  10.6708
  4.784  10.7635
  4.779  10.8047
  4.775  10.8562
  4.771  10.9283
  4.766  10.9901
  4.762  11.0313
  4.758  11.0725
  4.753  11.1755
  4.749  11.3506
  4.744  11.4536
  4.740  11.4948
  4.736  11.5154
  4.731  11.5669
  4.727  11.6287
  4.723  11.6493
  4.719  11.6699
  4.714  11.6493
  4.710  11.6493
  4.706  11.6287
  4.701  11.5875
  4.697  11.5463
  4.693  11.4845
  4.689  11.4433
  4.684  11.4330
  4.680  11.4433
  4.676  11.5051
  4.672  11.5257
  4.668  11.5875
  4.663  11.7523
  4.659  11.9583
  4.655  12.0716
  4.651  12.2570
  4.647  12.4733
  4.643  12.5969
  4.638  12.7411
  4.634  12.9162
  4.630  13.1531
  4.626  13.3282
  4.622  13.4724
  4.618  13.6269
  4.614  13.7196
  4.610  13.8432
  4.605  13.9668
  4.601  14.0801
  4.597  14.1934
  4.593  14.3582
  4.589  14.4715
  4.585  14.5642
  4.581  14.6878
  4.577  14.8320
  4.573  14.9968
  4.569  15.0689
  4.565  15.0792
  4.561  15.1204
  4.557  15.2337
  4.553  15.3264
  4.549  15.3779
  4.545  15.3882
  4.541  15.3985
  4.537  15.3676
  4.533  15.3264
  4.529  15.2543
  4.525  15.1719
  4.521  15.0895
  4.517  14.9968
  4.513  14.9041
  4.509  14.7290
  4.505  14.5436
  4.502  14.3994
  4.498  14.2964
  4.494  14.2861
  4.490  14.2861
  4.486  14.2861
  4.482  14.2655
  4.478  14.2037
  4.474  14.1934
  4.470  14.1831
  4.467  14.1934
  4.463  14.3788
  4.459  14.5436
  4.455  14.6981
  4.451  14.9144
  4.447  15.0689
  4.444  15.2543
  4.440  15.3985
  4.436  15.5118
  4.432  15.6457
  4.428  15.7693
  4.425  15.9032
  4.421  16.1092
  4.417  16.3049
  4.413  16.4800
  4.410  16.6860
  4.406  16.8405
  4.402  17.0362
  4.398  17.2422
  4.395  17.4379
  4.391  17.6748
  4.387  17.9838
  4.384  18.1589
  4.380  18.3443
  4.376  18.6430
  4.372  18.9108
  4.369  19.1580
  4.365  19.3743
  4.361  19.5700
  4.358  19.8172
  4.354  20.0953
  4.350  20.3116
  4.347  20.4249
  4.343  20.5588
  4.340  20.7133
  4.336  20.8472
  4.332  21.0017
  4.329  21.1974
  4.325  21.3313
  4.321  21.4343
  4.318  21.4652
  4.314  21.4858
  4.311  21.5373
  4.307  21.5579
  4.304  21.5785
  4.300  21.5888
  4.296  21.6094
  4.293  21.6609
  4.289  21.7021
  4.286  21.7742
  4.282  21.8051
  4.279  21.9287
  4.275  22.1553
  4.272  22.3098
  4.268  22.4437
  4.265  22.6085
  4.261  22.7012
  4.258  22.8557
  4.254  23.0720
  4.251  23.1441
  4.247  23.0823
  4.244  23.0205
  4.240  23.0514
  4.237  23.0102
  4.233  22.9999
  4.230  23.0102
  4.226  23.0823
  4.223  23.2471
  4.219  23.2986
  4.216  23.3810
  4.213  23.5046
  4.209  23.5973
  4.206  23.6591
  4.202  23.7415
  4.199  23.8754
  4.196  23.9784
  4.192  24.0299
  4.189  24.0917
  4.185  24.1226
  4.182  24.2359
  4.179  24.3286
  4.175  24.4110
  4.172  24.5758
  4.169  24.6685
  4.165  24.6788
  4.162  24.7818
  4.159  24.8539
  4.155  24.9363
  4.152  25.0599
  4.149  25.1732
  4.145  25.2659
  4.142  25.2865
  4.139  25.3586
  4.135  25.5028
  4.132  25.5955
  4.129  25.6161
  4.126  25.6882
  4.122  25.8324
  4.119  25.9148
  4.116  25.9251
  4.112  26.0796
  4.109  26.2650
  4.106  26.3165
  4.103  26.3989
  4.099  26.4813
  4.096  26.6461
  4.093  26.7285
  4.090  26.7285
  4.086  26.8418
  4.083  26.9242
  4.080  26.9551
  4.077  26.9963
  4.074  26.9654
  4.070  27.0478
  4.067  27.1920
  4.064  27.2229
  4.061  27.2538
  4.058  27.3465
  4.055  27.3774
  4.051  27.3568
  4.048  27.3156
  4.045  27.3877
  4.042  27.4289
  4.039  27.4392
  4.036  27.4701
  4.032  27.5731
  4.029  27.5525
  4.026  27.4495
  4.023  27.3568
  4.020  27.3362
  4.017  27.3053
  4.014  27.3774
  4.011  27.4804
  4.008  27.5113
  4.004  27.5525
  4.001  27.6452
  3.998  27.5834
  3.995  27.5937
  3.992  27.6349
  3.989  27.6864
  3.986  27.7070
  3.983  27.7482
  3.980  27.8203
  3.977  27.8306
  3.974  27.8615
  3.971  27.9336
  3.968  27.9954
  3.965  28.1190
  3.962  28.1705
  3.959  28.1293
  3.956  28.1499
  3.953  28.3353
  3.950  28.4280
  3.947  28.3971
  3.944  28.4177
  3.941  28.5413
  3.938  28.6237
  3.935  28.6134
  3.932  28.6134
  3.929  28.6855
  3.926  28.7061
  3.923  28.7370
  3.920  28.7885
  3.917  28.8194
  3.914  28.7988
  3.911  28.8503
  3.908  28.9121
  3.905  28.9224
  3.902  28.8812
  3.899  28.7885
  3.896  28.6855
  3.893  28.6134
  3.890  28.5722
  3.887  28.6546
  3.884  28.7679
  3.882  28.7576
  3.879  28.6134
  3.876  28.4795
  3.873  28.4280
  3.870  28.4898
  3.867  28.5104
  3.864  28.5413
  3.861  28.4795
  3.858  28.3971
  3.856  28.2735
  3.853  28.3044
  3.850  28.4074
  3.847  28.4280
  3.844  28.3353
  3.841  28.4383
  3.838  28.4795
  3.836  28.3765
  3.833  28.3559
  3.830  28.4589
  3.827  28.4383
  3.824  28.3868
  3.822  28.3971
  3.819  28.5001
  3.816  28.5001
  3.813  28.4280
  3.810  28.3765
  3.807  28.4589
  3.805  28.5207
  3.802  28.4177
  3.799  28.3147
  3.796  28.3353
  3.794  28.3147
  3.791  28.2941
  3.788  28.2632
  3.785  28.2014
  3.782  28.0881
  3.780  28.0675
  3.777  27.9954
  3.774  27.8615
  3.771  27.7276
  3.769  27.6658
  3.766  27.5525
  3.763  27.5319
  3.761  27.5216
  3.758  27.5010
  3.755  27.4289
  3.752  27.2950
  3.750  27.2332
  3.747  27.2126
  3.744  27.0478
  3.742  26.8933
  3.739  26.8727
  3.736  26.9860
  3.733  26.9242
  3.731  26.8521
  3.728  26.8212
  3.725  26.8418
  3.723  26.7800
  3.720  26.6667
  3.717  26.6564
  3.715  26.6667
  3.712  26.5946
  3.709  26.5534
  3.707  26.5328
  3.704  26.6049
  3.702  26.5225
  3.699  26.4813
  3.696  26.4504
  3.694  26.4195
  3.691  26.4401
  3.688  26.4195
  3.686  26.3268
  3.683  26.3474
  3.680  26.3680
  3.678  26.4813
  3.675  26.5637
  3.673  26.5637
  3.670  26.5946
  3.667  26.5534
  3.665  26.4092
  3.662  26.3989
  3.660  26.5637
  3.657  26.6152
  3.655  26.4916
  3.652  26.4092
  3.649  26.3989
  3.647  26.3783
  3.644  26.2135
  3.642  26.1826
  3.639  26.2238
  3.637  26.2032
  3.634  26.1929
  3.632  26.2650
  3.629  26.1517
  3.626  26.0178
  3.624  25.9148
  3.621  25.9251
  3.619  25.8736
  3.616  25.7500
  3.614  25.6264
  3.611  25.5543
  3.609  25.4307
  3.606  25.3895
  3.604  25.3380
  3.601  25.2968
  3.599  25.1629
  3.596  24.9981
  3.594  24.9569
  3.591  25.0393
  3.589  24.9775
  3.586  24.8436
  3.584  24.6376
  3.581  24.5655
  3.579  24.5449
  3.576  24.4316
  3.574  24.3183
  3.571  24.3492
  3.569  24.2256
  3.567  24.0917
  3.564  23.9887
  3.562  24.0608
  3.559  24.0299
  3.557  23.8445
  3.554  23.6488
  3.552  23.6282
  3.549  23.5458
  3.547  23.4222
  3.545  23.2780
  3.542  23.2059
  3.540  23.1441
  3.537  23.0205
  3.535  22.9072
  3.533  22.9175
  3.530  22.8145
  3.528  22.6909
  3.525  22.6497
  3.523  22.5261
  3.521  22.2789
  3.518  22.2068
  3.516  22.1759
  3.513  22.0214
  3.511  21.8051
  3.509  21.6918
  3.506  21.5785
  3.504  21.5270
  3.502  21.5579
  3.499  21.4961
  3.497  21.3725
  3.494  21.2592
  3.492  21.1562
  3.490  21.1356
  3.487  21.1356
  3.485  21.1253
  3.483  21.0223
  3.480  21.0120
  3.478  20.8575
  3.476  20.8060
  3.473  20.8369
  3.471  20.8472
  3.469  20.8781
  3.466  20.8781
  3.464  20.7648
  3.462  20.6721
  3.460  20.5485
  3.457  20.4455
  3.455  20.4352
  3.453  20.4146
  3.450  20.3116
  3.448  20.2292
  3.446  20.1468
  3.443  20.0232
  3.441  19.8584
  3.439  19.7966
  3.437  19.7554
  3.434  19.6421
  3.432  19.4567
  3.430  19.2610
  3.428  19.0447
  3.425  19.0138
  3.423  19.0241
  3.421  18.9314
  3.418  18.7048
  3.416  18.6121
  3.414  18.4885
  3.412  18.3649
  3.409  18.2516
  3.407  18.2722
  3.405  18.2413
  3.403  18.2413
  3.401  18.1795
  3.398  18.2104
  3.396  18.1692
  3.394  18.0147
  3.392  17.8911
  3.389  17.9014
  3.387  17.8396
  3.385  17.8190
  3.383  17.6851
  3.381  17.6027
  3.378  17.5409
  3.376  17.4894
  3.374  17.4173
  3.372  17.4379
  3.370  17.3349
  3.367  17.2731
  3.365  17.2319
  3.363  17.1598
  3.361  17.0671
  3.359  17.0465
  3.357  17.0053
  3.354  16.9023
  3.352  16.8611
  3.350  16.9229
  3.348  16.9126
  3.346  16.8611
  3.344  16.8199
  3.341  16.7169
  3.339  16.6242
  3.337  16.5624
  3.335  16.4388
  3.333  16.4285
  3.331  16.3770
  3.329  16.3564
  3.326  16.2328
  3.324  16.0680
  3.322  15.9135
  3.320  15.8929
  3.318  15.8311
  3.316  15.7384
  3.314  15.5633
  3.312  15.5221
  3.309  15.5530
  3.307  15.5427
  3.305  15.3676
  3.303  15.2234
  3.301  15.2234
  3.299  15.2440
  3.297  15.1822
  3.295  15.0689
  3.293  14.8217
  3.291  14.7290
  3.288  14.7496
  3.286  14.6981
  3.284  14.6466
  3.282  14.5745
  3.280  14.5230
  3.278  14.6260
  3.276  14.5539
  3.274  14.4303
  3.272  14.3479
  3.270  14.1934
  3.268  14.0492
  3.266  14.0286
  3.264  14.0286
  3.262  14.0080
  3.259  13.8020
  3.257  13.6166
  3.255  13.6475
  3.253  13.6166
  3.251  13.5445
  3.249  13.5548
  3.247  13.5445
  3.245  13.5445
  3.243  13.4827
  3.241  13.3900
  3.239  13.2973
  3.237  13.2664
  3.235  13.1634
  3.233  13.1428
  3.231  13.1016
  3.229  13.0707
  3.227  13.0192
  3.225  12.9677
  3.223  12.8338
  3.221  12.7205
  3.219  12.7205
  3.217  12.6999
  3.215  12.5660
  3.213  12.5248
  3.211  12.4115
  3.209  12.2364
  3.207  12.2158
  3.205  12.3188
  3.203  12.3188
  3.201  12.2776
  3.199  12.2158
  3.197  12.1025
  3.195  11.9892
  3.193  12.0407
  3.191  11.9171
  3.189  11.8038
  3.187  11.7626
  3.185  11.7214
  3.183  11.6081
  3.182  11.5669
  3.180  11.4433
  3.178  11.3506
  3.176  11.3300
  3.174  11.3300
  3.172  11.2373
  3.170  11.2167
  3.168  11.2373
  3.166  11.2373
  3.164  11.1343
  3.162  10.9180
  3.160  10.8253
  3.158  10.9283
  3.156  10.8562
  3.154  10.6605
  3.152  10.4751
  3.151  10.5678
  3.149  10.5163
  3.147  10.3618
  3.145  10.3618
  3.143  10.3103
  3.141  10.1764
  3.139  10.0940
  3.137  10.0013
  3.135   9.9910
  3.133   9.9395
  3.132   9.9189
  3.130   9.9086
  3.128   9.8674
  3.126   9.7335
  3.124   9.7232
  3.122   9.7541
  3.120   9.6820
  3.118   9.4966
  3.117   9.4039
  3.115   9.3524
  3.113   9.4142
  3.111   9.3318
  3.109   9.3627
  3.107   9.2906
  3.105   9.1773
  3.103   9.1464
  3.102   9.1567
  3.100   9.0743
  3.098   9.0125
  3.096   8.9816
  3.094   9.0228
  3.092   8.9301
  3.091   8.8786
  3.089   8.8683
  3.087   8.8374
  3.085   8.6417
  3.083   8.6211
  3.081   8.7241
  3.079   8.7447
  3.078   8.7241
  3.076   8.6829
  3.074   8.6314
  3.072   8.6211
  3.070   8.5490
  3.069   8.5490
  3.067   8.6211
  3.065   8.6005
  3.063   8.5181
  3.061   8.5696
  3.060   8.4254
  3.058   8.2709
  3.056   8.2194
  3.054   8.3430
  3.052   8.4563
  3.051   8.4563
  3.049   8.3018
  3.047   8.2606
  3.045   8.2503
  3.043   8.2297
  3.042   8.0855
  3.040   8.1370
  3.038   8.2606
  3.036   8.2812
  3.034   8.1885
  3.033   8.2606
  3.031   8.2091
  3.029   8.1576
  3.027   8.1679
  3.026   8.1885
  3.024   8.0649
  3.022   8.1679
  3.020   8.1370
  3.019   8.0443
  3.017   7.9413
  3.015   7.9516
  3.013   7.9413
  3.012   7.9825
  3.010   7.8692
  3.008   7.8280
  3.006   7.6941
  3.005   7.8177
  3.003   8.0649
  3.001   8.0649
  2.999   7.6735
  2.998   7.6117
  2.996   7.8177
  2.994   7.7662
  2.992   7.5499
  2.991   7.5808
  2.989   7.5705
  2.987   7.7971
  2.986   7.8898
  2.984   7.7559
  2.982   7.6014
  2.980   7.5499
  2.979   7.3954
  2.977   7.3748
  2.975   7.4881
  2.974   7.4984
  2.972   7.3130
  2.970   7.2203
  2.968   7.1482
  2.967   7.1791
  2.965   7.2409
  2.963   7.1997
  2.962   7.0761
  2.960   7.1585
  2.958   7.1791
  2.957   7.0864
  2.955   6.9010
  2.953   6.9113
  2.952   6.9628
  2.950   7.0967
  2.948   7.0658
  2.947   7.0040
  2.945   6.8495
  2.943   6.8392
  2.942   6.8701
  2.940   6.8289
  2.938   6.7465
  2.937   6.7774
  2.935   6.7980
  2.933   6.9010
  2.932   6.9319
  2.930   7.0143
  2.928   6.9834
  2.927   7.0143
  2.925   7.1379
  2.923   7.1070
  2.922   6.9010
  2.920   7.1070
  2.918   7.2615
  2.917   7.3233
  2.915   7.2306
  2.913   7.1688
  2.912   7.0967
  2.910   6.9834
  2.909   6.8598
  2.907   6.8907
  2.905   7.0143
  2.904   7.1276
  2.902   7.1482
  2.900   7.3233
  2.899   7.3027
  2.897   7.2100
  2.896   7.0143
  2.894   7.0658
  2.892   7.3233
  2.891   7.4057
  2.889   7.3542
  2.887   7.4263
  2.886   7.4057
  2.884   7.3027
  2.883   7.2306
  2.881   7.2306
  2.879   7.1482
  2.878   7.1379
  2.876   7.1482
  2.875   7.2203
  2.873   7.1997
  2.871   7.3027
  2.870   7.4366
  2.868   7.3748
  2.867   7.2203
  2.865   7.2100
  2.864   7.1894
  2.862   7.2615
  2.860   7.3130
  2.859   7.3027
  2.857   7.1791
  2.856   7.0761
  2.854   6.9525
  2.853   6.8701
  2.851   6.8907
  2.849   7.3233
  2.848   7.3336
  2.846   7.0967
  2.845   6.9113
  2.843   7.0967
  2.842   7.0658
  2.840   6.8907
  2.838   6.8392
  2.837   6.7877
  2.835   6.3963
  2.834   6.2212
  2.832   6.2109
  2.831   6.2830
  2.829   6.3139
  2.828   6.2933
  2.826   6.2418
  2.825   6.0873
  2.823   5.8607
  2.821   5.8298
  2.820   5.9019
  2.818   5.7886
  2.817   5.4178
  2.815   5.2942
  2.814   5.3663
  2.812   5.3663
  2.811   5.2118
  2.809   5.0882
  2.808   4.9749
  2.806   4.9749
  2.805   4.7277
  2.803   4.4393
  2.802   4.5217
  2.800   4.7689
  2.799   4.6453
  2.797   4.5320
  2.796   4.3054
  2.794   4.0891
  2.793   4.0479
  2.791   4.0891
  2.790   3.9552
  2.788   3.7698
  2.787   3.8110
  2.785   3.8728
  2.784   3.7801
  2.782   3.8007
  2.781   3.7904
  2.779   3.8316
  2.778   3.7389
  2.776   3.5638
  2.775   3.4505
  2.773   3.4402
  2.772   3.3578
  2.770   3.4093
  2.769   3.2651
  2.767   3.0385
  2.766   3.0797
  2.764   3.2342
  2.763   3.2754
  2.761   3.0694
  2.760   3.0797
  2.758   3.1930
  2.757   3.0076
  2.756   2.9046
  2.754   3.0900
  2.753   3.2651
  2.751   3.3784
  2.750   3.4299
  2.748   3.4505
  2.747   3.3269
  2.745   3.3681
  2.744   3.8522
  2.742   3.8934
  2.741   3.7595
  2.740   3.6565
  2.738   3.7698
  2.737   3.7698
  2.735   3.7080
  2.734   3.6874
  2.732   3.7080
  2.731   3.9243
  2.729   4.2024
  2.728   4.1303
  2.727   4.2848
  2.725   4.2127
  2.724   4.2745
  2.722   4.2539
  2.721   4.3981
  2.719   4.4496
  2.718   4.4702
  2.717   4.6556
  2.715   4.7689
  2.714   4.7998
  2.712   4.7689
  2.711   4.3672
  2.709   4.1921
  2.708   4.1509
  2.707   4.2230
  2.705   4.1200
  2.704   3.8831
  2.702   3.9140
  2.701   4.2333
  2.700   4.2436
  2.698   4.3569
  2.697   4.7277
  2.695   5.4075
  2.694   6.0049
  2.693   6.6847
  2.691   7.4366
  2.690   8.1576
  2.688   8.9095
  2.687   9.7953
  2.686  10.7429
  2.684  11.6184
  2.683  12.1231
  2.681  12.7617
  2.680  13.5239
  2.679  14.2655
  2.677  14.9453
  2.676  15.8414
  2.675  16.4800
  2.673  17.0156
  2.672  17.3967
  2.670  17.6542
  2.669  18.0559
  2.668  18.8593
  2.666  19.4155
  2.665  19.7142
  2.664  20.1056
  2.662  20.5897
  2.661  20.9090
  2.659  21.2798
  2.658  21.6094
  2.657  22.0729
  2.655  22.3407
  2.654  22.7321
  2.653  23.1544
  2.651  23.3913
  2.650  23.4428
  2.649  23.7415
  2.647  23.9475
  2.646  23.9475
  2.645  24.3492
  2.643  24.8333
  2.642  24.8848
  2.640  25.1114
  2.639  25.2453
  2.638  25.4410
  2.636  25.6058
  2.635  25.7809
  2.634  25.9045
  2.632  26.0487
  2.631  26.3989
  2.630  26.6770
  2.628  26.7903
  2.627  27.0890
  2.626  27.1199
  2.624  27.0684
  2.623  27.0890
  2.622  27.2435
  2.620  27.3465
  2.619  27.5113
  2.618  27.4598
  2.617  27.6658
  2.615  27.6761
  2.614  27.5010
  2.613  27.5216
  2.611  27.7482
  2.610  27.9954
  2.609  28.0984
  2.607  28.0057
  2.606  28.1911
  2.605  28.2323
  2.603  28.4486
  2.602  28.4692
  2.601  28.5207
  2.599  28.3662
  2.598  28.3662
  2.597  28.6237
  2.596  28.7885
  2.594  28.6958
  2.593  28.7679
  2.592  29.0460
  2.590  29.2108
  2.589  29.2211
  2.588  29.3859
  2.586  29.2005
  2.585  29.3344
  2.584  29.6434
  2.583  29.5507
  2.581  29.2932
  2.580  29.6022
  2.579  29.7979
  2.577  29.7155
  2.576  29.5095
  2.575  29.7979
  2.574  29.9524
  2.572  29.9009
  2.571  29.9009
  2.570  30.1378
  2.569  30.1069
  2.567  30.3129
  2.566  30.7970
  2.565  31.0957
  2.563  31.0545
  2.562  30.8176
  2.561  30.6734
  2.560  30.9206
  2.558  30.8794
  2.557  30.9103
  2.556  31.1163
  2.555  31.2811
  2.553  31.2399
  2.552  31.3223
  2.551  31.4253
  2.550  31.5798
  2.548  31.6107
  2.547  31.5180
  2.546  31.4459
  2.545  31.4459
  2.543  31.5180
  2.542  31.6107
  2.541  31.5592
  2.540  31.6210
  2.538  31.6313
  2.537  32.0639
  2.536  31.9609
  2.535  31.8373
  2.533  31.9609
  2.532  32.2493
  2.531  32.5583
  2.530  32.5892
  2.528  32.5068
  2.527  32.5068
  2.526  32.2905
  2.525  32.3317
  2.524  32.3317
  2.522  32.4347
  2.521  32.4759
  2.520  32.5480
  2.519  32.7128
  2.517  32.8982
  2.516  32.7849
  2.515  32.8467
  2.514  32.9806
  2.513  32.8673
  2.511  32.8879
  2.510  32.7952
  2.509  32.7128
  2.508  32.9909
  2.506  33.0733
  2.505  32.9703
  2.504  32.8055
  2.503  32.8673
  2.502  33.0012
  2.500  33.2999
  2.497  33.2999
  2.493  33.0999
  2.489  33.0999
  2.485  33.1999
  2.481  33.1999
  2.477  32.8999
  2.473  33.0999
  2.469  33.0999
  2.465  33.1999
  2.461  33.4999
  2.457  33.4999
  2.453  33.5999
  2.449  33.7999
  2.445  34.0999
  2.441  34.3999
  2.437  34.7999
  2.433  35.1999
  2.429  35.3999
  2.425  36.1999
  2.421  36.4999
  2.417  36.4999
  2.413  36.9999
  2.409  37.0999
  2.405  37.6999
  2.401  38.0999
  2.397  38.4999
  2.393  38.4999
  2.389  38.3999
  2.385  38.1999
  2.381  38.0999
  2.377  38.3999
  2.373  37.9999
  2.369  37.8999
  2.365  37.6999
  2.361  37.5999
  2.357  37.5999
  2.353  37.5999
  2.349  37.6999
  2.345  38.0999
  2.341  37.9999
  2.337  38.0999
  2.333  38.1999
  2.329  38.5999
  2.325  39.0999
  2.321  39.2999
  2.317  39.7999
  2.313  40.2999
  2.309  40.9999
  2.305  41.6999
  2.301  41.4999
  2.297  43.6999
  2.293  43.3999
  2.289  44.0999
  2.285  44.8999
  2.281  46.1999
  2.277  47.0999
  2.273  47.2999
  2.269  47.0999
  2.265  46.9999
  2.261  46.3999
  2.257  45.6999
  2.253  45.2999
  2.249  44.7999
  2.245  44.4999
  2.241  43.3999
  2.237  42.5999
  2.233  41.9999
  2.229  41.2999
  2.225  40.2999
  2.221  39.7999
  2.217  39.1999
  2.213  39.0999
  2.209  39.0999
  2.205  39.6999
  2.201  40.0999
  2.197  40.9999
  2.193  42.3999
  2.189  43.1999
  2.185  44.0999
  2.181  45.5999
  2.177  46.7999
  2.173  46.9999
  2.169  47.3999
  2.165  47.9999
  2.161  48.1999
  2.157  48.9999
  2.153  49.7999
  2.149  50.3999
  2.145  51.1999
  2.141  52.4999
  2.137  53.5999
  2.133  54.5999
  2.129  55.1999
  2.125  55.3999
  2.121  56.0999
  2.117  57.2999
  2.113  57.9999
  2.109  58.6999
  2.105  58.9999
  2.101  59.7999
  2.097  60.0999
  2.093  60.6999
  2.089  60.7999
  2.085  60.8999
  2.081  61.2999
  2.077  62.1999
  2.073  61.5999
  2.069  61.3999
  2.065  61.5999
  2.061  61.6999
  2.057  61.6999
  2.053  62.2999
  2.049  62.2999
  2.045  62.1999
  2.041  61.8999
  2.037  61.8999
  2.033  61.8999
  2.029  61.7999
  2.025  61.5999
  2.021  61.1999
  2.017  60.8999
  2.013  60.8999
  2.009  60.0999
  2.005  59.7999
  2.001  59.9999
  1.997  59.9999
  1.993  59.1999
  1.989  58.6999
  1.985  58.3999
  1.981  58.0999
  1.977  57.9999
  1.973  57.5999
  1.969  57.5999
  1.965  57.3999
  1.961  56.9999
  1.957  56.4999
  1.953  55.8999
  1.949  55.3999
  1.945  55.1999
  1.941  54.9999
  1.937  54.7999
  1.933  54.5999
  1.929  54.2999
  1.925  53.4999
  1.921  52.8999
  1.917  52.2999
  1.913  52.2999
  1.909  52.7999
  1.905  53.3999
  1.901  53.9999
  1.897  55.2999
  1.893  57.2999
  1.889  59.0999
  1.885  61.0999
  1.881  63.0999
  1.877  65.1999
  1.873  65.7999
  1.869  65.6999
  1.865  66.0999
  1.861  66.7999
  1.857  68.0999
  1.853  68.9999
  1.849  69.3999
  1.845  69.0999
  1.841  69.1999
  1.837  69.0999
  1.833  68.5999
  1.829  68.8999
  1.825  68.9999
  1.821  69.4999
  1.817  69.6999
  1.813  69.4999
  1.809  69.4999
  1.805  69.4999
  1.801  69.4999
  1.797  69.3999
  1.793  69.4999
  1.789  69.5999
  1.785  69.9999
  1.781  70.0999
  1.777  70.0999
  1.773  70.1999
  1.769  70.2999
  1.765  70.6999
  1.761  70.9999
  1.757  70.5999
  1.753  70.2999
  1.749  70.1999
  1.745  69.8999
  1.741  70.1999
  1.737  70.2999
  1.733  70.4999
  1.729  70.5999
  1.725  70.4999
  1.721  69.9999
  1.717  70.0999
  1.713  70.4999
  1.709  70.1999
  1.705  70.1999
  1.701  70.4999
  1.697  70.2999
  1.693  70.6999
  1.689  70.2999
  1.685  70.2999
  1.681  70.5999
  1.677  70.6999
  1.673  70.7999
  1.669  70.5999
  1.665  70.4999
  1.661  70.5999
  1.657  70.1999
  1.653  69.9999
  1.649  69.8999
  1.645  69.5999
  1.641  69.4999
  1.637  69.4999
  1.633  69.4999
  1.629  69.9999
  1.625  70.2999
  1.621  69.6999
  1.617  69.3999
  1.613  69.3999
  1.609  69.1999
  1.605  69.5999
  1.601  69.0999
  1.597  68.8999
  1.593  68.8999
  1.589  68.5999
  1.585  68.7999
  1.581  68.8999
  1.577  68.8999
  1.573  68.3999
  1.569  67.8999
  1.565  67.8999
  1.561  67.6999
  1.557  67.1999
  1.553  66.9999
  1.549  66.9999
  1.545  66.9999
  1.541  67.1999
  1.537  66.6999
  1.533  66.5999
  1.529  66.3999
  1.525  66.3999
  1.521  66.8999
  1.517  66.9999
  1.513  66.9999
  1.509  66.8999
  1.505  66.7999
  1.501  65.7999
  1.497  65.6999
  1.493  65.2999
  1.489  65.2999
  1.485  65.1999
  1.481  65.1999
  1.477  64.9999
  1.473  64.6999
  1.469  64.5999
  1.465  64.3999
  1.461  63.7999
  1.457  63.0999
  1.453  62.9999
  1.449  62.7999
  1.445  62.2999
  1.441  61.3999
  1.437  60.2999
  1.433  59.1999
  1.429  57.8999
  1.425  56.2999
  1.421  54.5999
  1.417  52.7999
  1.413  50.7999
  1.409  49.7999
  1.405  50.6999
  1.401  51.6999
  1.397  53.0999
  1.393  54.2999
  1.389  54.4999
  1.385  55.5999
  1.381  56.6999
  1.377  56.7999
  1.373  58.5999
  1.369  60.7999
  1.365  61.1999
  1.361  60.6999
  1.357  60.1999
  1.353  61.0999
  1.349  61.5999
  1.345  61.9999
  1.341  62.4999
  1.337  62.6999
  1.333  62.1999
  1.329  61.9999
  1.325  61.7999
  1.321  61.5999
  1.317  61.6999
  1.313  61.6999
  1.309  61.7999
  1.305  61.6999
  1.301  61.5999
  1.297  61.5999
  1.293  61.2999
  1.289  61.2999
  1.285  61.0999
  1.281  60.6999
  1.277  60.1999
  1.273  59.7999
  1.269  59.5999
  1.265  59.3999
  1.261  59.6999
  1.257  59.7999
  1.253  59.5999
  1.249  59.0999
  1.245  58.5999
  1.241  58.3999
  1.237  58.5999
  1.233  58.4999
  1.229  58.4999
  1.225  58.4999
  1.221  58.0999
  1.217  57.8999
  1.213  57.3999
  1.209  56.8999
  1.205  56.6999
  1.201  56.2999
  1.197  56.1999
  1.193  55.7999
  1.189  55.7999
  1.185  55.6999
  1.181  55.5999
  1.177  55.5999
  1.173  55.5999
  1.169  55.3999
  1.165  55.3999
  1.161  55.1999
  1.157  55.0999
  1.153  55.2999
  1.149  55.3999
  1.145  55.2999
  1.141  54.9999
  1.137  54.5999
  1.133  54.7999
  1.129  54.5999
  1.125  54.2999
  1.121  54.5999
  1.117  54.6999
  1.113  54.2999
  1.109  54.2999
  1.105  54.6999
  1.101  54.5999
  1.097  54.2999
  1.093  54.0999
  1.089  53.6999
  1.085  53.9999
  1.081  54.4999
  1.077  54.1999
  1.073  53.8999
  1.069  54.1999
  1.065  54.0999
  1.061  54.0999
  1.057  53.9999
  1.053  53.5999
  1.049  53.3999
  1.045  53.3999
  1.041  53.4999
  1.037  53.0999
  1.033  53.4999
  1.029  54.0999
  1.025  53.6999
  1.021  53.5999
  1.017  53.6999
  1.013  53.4999
  1.009  53.8999
  1.005  53.8999
  1.001  53.3999
  0.997  53.3999
  0.993  54.0999
  0.989  53.8999
  0.985  53.4999
  0.981  53.4999
  0.977  53.2999
  0.973  52.7999
  0.969  52.9999
  0.965  53.0999
  0.961  52.7999
  0.957  52.7999
  0.953  52.4999
  0.949  52.5999
  0.945  52.4999
  0.941  52.4999
  0.937  52.1999
  0.933  52.4999
  0.929  52.1999
  0.925  52.2999
  0.921  51.7999
  0.917  51.7999
  0.913  51.7999
  0.909  51.7999
  0.905  51.4999
  0.901  51.4999
  0.897  51.4999
  0.893  51.2999
  0.889  51.0999
  0.885  50.7999
  0.881  50.6999
  0.877  51.1999
  0.873  50.8999
  0.869  50.8999
  0.865  50.8999
  0.861  50.7999
  0.857  50.6999
  0.853  50.7999
  0.849  50.6999
  0.845  50.5999
  0.841  50.3999
  0.837  50.7999
  0.833  50.7999
  0.829  50.6999
  0.825  50.6999
  0.821  50.6999
  0.817  50.6999
  0.813  50.5999
  0.809  50.7999
  0.805  50.1999
  0.804  51.0999
  0.803  51.0999
  0.802  50.7999
  0.801  51.0999
  0.800  50.7999
  0.799  50.8999
  0.798  50.6999
  0.797  50.6999
  0.796  50.7999
  0.795  50.3999
  0.794  50.5999
  0.793  50.3999
  0.792  50.5999
  0.791  50.7999
  0.790  50.8999
  0.789  50.7999
  0.788  50.6999
  0.787  50.2999
  0.786  50.6999
  0.785  50.5999
  0.784  50.1999
  0.783  50.3999
  0.782  50.5999
  0.781  50.1999
  0.780  50.0999
  0.779  50.3999
  0.778  50.1999
  0.777  50.6999
  0.776  50.6999
  0.775  50.6999
  0.774  50.3999
  0.773  50.2999
  0.772  50.0999
  0.771  49.7999
  0.770  49.9999
  0.769  50.0999
  0.768  49.9999
  0.767  49.6999
  0.766  50.1999
  0.765  50.1999
  0.764  49.9999
  0.763  49.9999
  0.762  49.7999
  0.761  49.9999
  0.760  49.7999
  0.759  50.0999
  0.758  49.6999
  0.757  50.0999
  0.756  49.9999
  0.755  49.7999
  0.754  50.0999
  0.753  50.0999
  0.752  49.6999
  0.751  49.6999
  0.750  49.5999
  0.749  49.1999
  0.748  49.4999
  0.747  49.1999
  0.746  49.6999
  0.745  49.4999
  0.744  49.5999
  0.743  49.2999
  0.742  49.4999
  0.741  49.5999
  0.740  49.1999
  0.739  49.7999
  0.738  49.6999
  0.737  49.6999
  0.736  49.4999
  0.735  49.7999
  0.734  49.7999
  0.733  49.6999
  0.732  49.1999
  0.731  49.4999
  0.730  49.5999
  0.729  49.5999
  0.728  49.5999
  0.727  49.2999
  0.726  49.4999
  0.725  49.2999
  0.724  49.4999
  0.723  49.2999
  0.722  49.1999
  0.721  49.2999
  0.720  49.1999
  0.719  49.0999
  0.718  48.8999
  0.717  48.8999
  0.716  48.9999
  0.715  49.0999
  0.714  49.4999
  0.713  49.1999
  0.712  49.1999
  0.711  49.2999
  0.710  49.1999
  0.709  48.4999
  0.708  48.0999
  0.707  48.8999
  0.706  48.4999
  0.705  48.6999
  0.704  48.5999
  0.703  47.7999
  0.702  47.5999
  0.701  47.9999
  0.700  48.5999
  0.699  48.4999
  0.698  48.1999
  0.697  48.1999
  0.696  48.1999
  0.695  48.6999
  0.694  48.5999
  0.693  48.5999
  0.692  48.4999
  0.691  48.0999
  0.690  47.7999
  0.689  47.7999
  0.688  47.8999
  0.687  47.8999
  0.686  47.7999
  0.685  47.8999
  0.684  47.9999
  0.683  48.0999
  0.682  47.9999
  0.681  47.8999
  0.680  47.7999
  0.679  47.8999
  0.678  47.9999
  0.677  48.6999
  0.676  48.3999
  0.675  47.7999
  0.674  47.9999
  0.673  48.0999
  0.672  48.0999
  0.671  48.1999
  0.670  48.4999
  0.669  47.9999
  0.668  48.1999
  0.667  47.9999
  0.666  47.7999
  0.665  47.9999
  0.664  47.9999
  0.663  47.8999
  0.662  47.8999
  0.661  47.8999
  0.660  47.8999
  0.659  48.0999
  0.658  48.0999
  0.657  48.0999
  0.656  47.8999
  0.655  48.0999
  0.654  47.4999
  0.653  47.3999
  0.652  47.5999
  0.651  47.7999
  0.650  47.5999
  0.649  47.7999
  0.648  47.5999
  0.647  47.4999
  0.646  47.4999
  0.645  47.8999
  0.644  47.8999
  0.643  47.8999
  0.642  47.8999
  0.641  47.8999
  0.640  47.8999
  0.639  47.7999
  0.638  47.8999
  0.637  47.7999
  0.636  47.5999
  0.635  47.8999
  0.634  47.7999
  0.633  47.7999
  0.632  47.3999
  0.631  47.5999
  0.630  47.5999
  0.629  46.9999
  0.628  46.8999
  0.627  47.0999
  0.626  47.0999
  0.625  47.3999
  0.624  47.0999
  0.623  47.0999
  0.622  47.0999
  0.621  47.3999
  0.620  47.2999
  0.619  47.4999
  0.618  47.4999
  0.617  47.7999
  0.616  47.7999
  0.615  47.4999
  0.614  47.3999
  0.613  47.3999
  0.612  47.3999
  0.611  47.3999
  0.610  47.0999
  0.609  47.2999
  0.608  47.0999
  0.607  46.9999
  0.606  46.9999
  0.605  47.0999
  0.604  47.3999
  0.603  47.3999
  0.602  46.8999
  0.601  46.9999
  0.600  46.8999
  0.599  46.7999
  0.598  46.7999
  0.597  46.2999
  0.596  46.2999
  0.595  46.3999
  0.594  46.7999
  0.593  47.0999
  0.592  46.9999
  0.591  46.6999
  0.590  46.6999
  0.589  46.3999
  0.588  46.4999
  0.587  46.4999
  0.586  46.4999
  0.585  46.3999
  0.584  46.2999
  0.583  45.9999
  0.582  46.1999
  0.581  45.8999
  0.580  45.9999
  0.579  45.8999
  0.578  45.7999
  0.577  45.8999
  0.576  45.8999
  0.575  45.8999
  0.574  45.9999
  0.573  46.2999
  0.572  45.9999
  0.571  45.9999
  0.570  45.9999
  0.569  46.1999
  0.568  45.8999
  0.567  45.7999
  0.566  45.5999
  0.565  45.3999
  0.564  45.3999
  0.563  46.1999
  0.562  46.1999
  0.561  46.2999
  0.560  46.1999
  0.559  45.9999
  0.558  45.9999
  0.557  45.7999
  0.556  45.6999
  0.555  45.3999
  0.554  44.8999
  0.553  44.7999
  0.552  44.7999
  0.551  45.1999
  0.550  44.7999
  0.549  45.2999
  0.548  44.8999
  0.547  44.5999
  0.546  44.8999
  0.545  44.6999
  0.544  44.4999
  0.543  44.2999
  0.542  43.9999
  0.541  43.7999
  0.540  44.2999
  0.539  44.2999
  0.538  43.9999
  0.537  43.7999
  0.536  43.9999
  0.535  43.5999
  0.534  43.6999
  0.533  43.7999
  0.532  43.5999
  0.531  43.3999
  0.530  43.4999
  0.529  43.3999
  0.528  43.3999
  0.527  43.1999
  0.526  42.7999
  0.525  43.0999
  0.524  43.3999
  0.523  43.3999
  0.522  42.7999
  0.521  42.3999
  0.520  42.3999
  0.519  42.2999
  0.518  42.5999
  0.517  42.2999
  0.516  41.7999
  0.515  41.8999
  0.514  41.8999
  0.513  41.8999
  0.512  41.6999
  0.511  41.4999
  0.510  41.8999
  0.509  41.3999
  0.508  41.1999
  0.507  40.8999
  0.506  40.9999
  0.505  41.1999
  0.504  40.7999
  0.503  40.5999
  0.502  40.7999
  0.501  40.5999
  0.500  40.2999
  0.499  39.2999
  0.498  39.7999
  0.497  39.6999
  0.496  39.4999
  0.495  39.6999
  0.494  39.5999
  0.493  39.8999
  0.492  39.5999
  0.491  39.2999
  0.490  39.2999
  0.489  38.9999
  0.488  38.9999
  0.487  38.7999
  0.486  38.5999
  0.485  38.6999
  0.484  38.0999
  0.483  38.3999
  0.482  37.9999
  0.481  38.3999
  0.480  38.3999
  0.479  37.6999
  0.478  38.0999
  0.477  37.5999
  0.476  37.8999
  0.475  37.5999
  0.474  37.3999
  0.473  37.4999
  0.472  37.5999
  0.471  37.6999
  0.470  37.3999
  0.469  37.3999
  0.468  37.4999
  0.467  37.0999
  0.466  37.2999
  0.465  36.9999
  0.464  35.9999
  0.463  37.3999
  0.462  37.0999
  0.461  36.4999
  0.460  36.4999
  0.459  36.1999
  0.458  35.9999
  0.457  35.4999
  0.456  35.6999
  0.455  35.9999
  0.454  35.8999
  0.453  35.7999
  0.452  35.4999
  0.451  35.2999
  0.450  35.1999
  0.449  35.4999
  0.448  35.1999
  0.447  34.8999
  0.446  34.2999
  0.445  34.3999
  0.444  34.7999
  0.443  34.8999
  0.442  34.3999
  0.441  34.1999
  0.440  33.9999
  0.439  33.9999
  0.438  33.7999
  0.437  34.0999
  0.436  33.4999
  0.435  32.9999
  0.434  32.9999
  0.433  32.8999
  0.432  32.9999
  0.431  32.8999
  0.430  32.4999
  0.429  32.6999
  0.428  32.6999
  0.427  32.4999
  0.426  32.5999
  0.425  32.0999
  0.424  31.9999
  0.423  31.8999
  0.422  31.5999
  0.421  31.3999
  0.420  31.1999
  0.419  31.1999
  0.418  31.2999
  0.417  30.6999
  0.416  30.6999
  0.415  30.6999
  0.414  30.3999
  0.413  30.3999
  0.412  30.0999
  0.411  30.2999
  0.410  30.0999
  0.409  29.7999
  0.408  29.8999
  0.407  30.0999
  0.406  29.2999
  0.405  29.2999
