Name: Alkali Basalt
Type: Rock
Class: Igneous
Subclass: Mafic
Particle Size: Whole rock chips
Sample No.: Mewy410a
Owner: Lawrence Rowan, USGS Reston
Wavelength range: 0.40 - 14.05 um
Origin: South Golan, Middle East

Description: Alkali basalt, cut surface, early Pliocene





Measurement: Directional Hemispherical Reflectance
First Column: X
Second Column: Y
X Units: Wavelength (micrometers)
Y Units: Reflectance (percent)
First X Value: 14.05105
Last X Value: 0.40000
Number of X Values: 2231
Additional Information: mewy410aa.txt

 14.051   3.3887
 14.013   3.2342
 13.975   3.3887
 13.938   3.3681
 13.900   3.3887
 13.863   3.2548
 13.826   3.3166
 13.790   3.1827
 13.753   3.3063
 13.717   3.4093
 13.680   3.5123
 13.644   3.4608
 13.609   3.5020
 13.573   3.4402
 13.538   3.4196
 13.502   3.3475
 13.467   3.4711
 13.432   3.4299
 13.398   3.4917
 13.363   3.4505
 13.329   3.4505
 13.295   3.4196
 13.261   3.5432
 13.227   3.5226
 13.193   3.4917
 13.160   3.4608
 13.126   3.5226
 13.093   3.4814
 13.060   3.5432
 13.027   3.4814
 12.995   3.5638
 12.962   3.5535
 12.930   3.5741
 12.898   3.5535
 12.866   3.6565
 12.834   3.6153
 12.802   3.6359
 12.771   3.6256
 12.739   3.7698
 12.708   3.7595
 12.677   3.7801
 12.646   3.7492
 12.616   3.8625
 12.585   3.8007
 12.554   3.7492
 12.524   3.8110
 12.494   3.9243
 12.464   3.9243
 12.434   4.0479
 12.404   4.0994
 12.375   4.1509
 12.345   4.2127
 12.316   4.3878
 12.287   4.4084
 12.258   4.5629
 12.229   4.6144
 12.200   4.6350
 12.171   4.7483
 12.143   4.9440
 12.115   5.0676
 12.086   5.2221
 12.058   5.2633
 12.030   5.3457
 12.002   5.4178
 11.975   5.5105
 11.947   5.5414
 11.920   5.6238
 11.892   5.5929
 11.865   5.6959
 11.838   5.7680
 11.811   5.8813
 11.784   5.9431
 11.757   6.1800
 11.731   6.3242
 11.704   6.4478
 11.678   6.4581
 11.652   6.6538
 11.626   6.7568
 11.600   6.9422
 11.574   7.1173
 11.548   7.3645
 11.522   7.5602
 11.497   7.7765
 11.471   7.9310
 11.446   8.1679
 11.421   8.3430
 11.396   8.5387
 11.371   8.6726
 11.346   8.8374
 11.321   8.8786
 11.297   9.0331
 11.272   9.1155
 11.248   9.2082
 11.223   9.2597
 11.199   9.4245
 11.175   9.5378
 11.151   9.6305
 11.127   9.6820
 11.103   9.7747
 11.079   9.8056
 11.056   9.9086
 11.032   9.9704
 11.009  10.1455
 10.985  10.2073
 10.962  10.3000
 10.939  10.2897
 10.916  10.3206
 10.893  10.3721
 10.870  10.4957
 10.848  10.5678
 10.825  10.6605
 10.802  10.6399
 10.780  10.6914
 10.758  10.6605
 10.735  10.5781
 10.713  10.5369
 10.691  10.6296
 10.669  10.5575
 10.647  10.5575
 10.625  10.6811
 10.604  10.7841
 10.582  10.6605
 10.560  10.5575
 10.539  10.5163
 10.518  10.5575
 10.496  10.4545
 10.475  10.3412
 10.454  10.1970
 10.433  10.2073
 10.412  10.2279
 10.391  10.3103
 10.370  10.4339
 10.350  10.5781
 10.329  10.5884
 10.309  10.6811
 10.288  10.7841
 10.268  10.8459
 10.247  10.8047
 10.227  10.8150
 10.207  10.8253
 10.187  10.8665
 10.167  10.8253
 10.147  10.7841
 10.127  10.6090
 10.108  10.5472
 10.088  10.5163
 10.068  10.5987
 10.049  10.5884
 10.029  10.5781
 10.010  10.5987
  9.991  10.6605
  9.972  10.7120
  9.952  10.7120
  9.933  10.7738
  9.914  10.9077
  9.895  10.9489
  9.877  11.0107
  9.858  10.9489
  9.839  10.9489
  9.821  11.0004
  9.802  11.1034
  9.783  11.0828
  9.765  11.1137
  9.747  11.1240
  9.728  11.1549
  9.710  11.1137
  9.692  11.1549
  9.674  11.2064
  9.656  11.2785
  9.638  11.2785
  9.620  11.3094
  9.602  11.2785
  9.585  11.2888
  9.567  11.2064
  9.549  11.1034
  9.532  11.0107
  9.514  11.0210
  9.497  10.8974
  9.479  10.8356
  9.462  10.7429
  9.445  10.6914
  9.428  10.6296
  9.411  10.5369
  9.394  10.2588
  9.377  10.0528
  9.360   9.8468
  9.343   9.7129
  9.326   9.5069
  9.309   9.3421
  9.293   9.1876
  9.276   9.0228
  9.259   8.8374
  9.243   8.7962
  9.226   8.6726
  9.210   8.6211
  9.194   8.6211
  9.178   8.7138
  9.161   8.6829
  9.145   8.6623
  9.129   8.6932
  9.113   8.7447
  9.097   8.7241
  9.081   8.8477
  9.065   8.8271
  9.049   8.8168
  9.034   8.8065
  9.018   8.8374
  9.002   8.8271
  8.987   8.7756
  8.971   8.5902
  8.956   8.4048
  8.940   8.2297
  8.925   8.1370
  8.909   7.8383
  8.894   7.6838
  8.879   7.5911
  8.864   7.4778
  8.849   7.1894
  8.834   6.9834
  8.819   6.7877
  8.804   6.6950
  8.789   6.5817
  8.774   6.3654
  8.759   6.2006
  8.744   6.1182
  8.730   6.0358
  8.715   6.0255
  8.700   5.8813
  8.686   5.8195
  8.671   5.7680
  8.657   5.6444
  8.642   5.5620
  8.628   5.4899
  8.614   5.3251
  8.599   5.2015
  8.585   5.1294
  8.571   5.0985
  8.557   4.9646
  8.543   4.8307
  8.529   4.6556
  8.515   4.6556
  8.501   4.6556
  8.487   4.6453
  8.473   4.4702
  8.459   4.3466
  8.445   4.2848
  8.431   4.2745
  8.418   4.2127
  8.404   4.1715
  8.391   4.0582
  8.377   4.0067
  8.363   3.9346
  8.350   3.8934
  8.337   3.8110
  8.323   3.7595
  8.310   3.6359
  8.297   3.4814
  8.283   3.3269
  8.270   3.2342
  8.257   3.1209
  8.244   3.0591
  8.231   2.9252
  8.218   2.8428
  8.205   2.7604
  8.192   2.6574
  8.179   2.5338
  8.166   2.5132
  8.153   2.4308
  8.140   2.3793
  8.128   2.2866
  8.115   2.2763
  8.102   2.2660
  8.090   2.2660
  8.077   2.1836
  8.064   2.1012
  8.052   2.0806
  8.039   2.1527
  8.027   2.1527
  8.015   2.1527
  8.002   2.0909
  7.990   2.1012
  7.978   2.0497
  7.965   2.0394
  7.953   2.0291
  7.941   2.0600
  7.929   2.0600
  7.917   2.0600
  7.905   2.0188
  7.893   1.9982
  7.881   1.9776
  7.869   1.9982
  7.857   1.9982
  7.845   2.0497
  7.833   2.0703
  7.821   2.0909
  7.809   2.0806
  7.798   2.0703
  7.786   2.0291
  7.774   2.0085
  7.763   1.9570
  7.751   2.0291
  7.739   2.0085
  7.728   1.9879
  7.716   1.9673
  7.705   2.0291
  7.694   2.0600
  7.682   2.0703
  7.671   2.0497
  7.659   2.0600
  7.648   2.0291
  7.637   2.0909
  7.626   2.1115
  7.614   2.1527
  7.603   2.1424
  7.592   2.1115
  7.581   2.0394
  7.570   2.0909
  7.559   2.0703
  7.548   2.0703
  7.537   2.0703
  7.526   2.1321
  7.515   2.1939
  7.504   2.1939
  7.493   2.1527
  7.483   2.1424
  7.472   2.1630
  7.461   2.1939
  7.450   2.1321
  7.440   2.1218
  7.429   2.1115
  7.418   2.1939
  7.408   2.2145
  7.397   2.2042
  7.387   2.1836
  7.376   2.2763
  7.366   2.3278
  7.355   2.2969
  7.345   2.2145
  7.334   2.2351
  7.324   2.2248
  7.314   2.2763
  7.303   2.2763
  7.293   2.2660
  7.283   2.2248
  7.273   2.2351
  7.263   2.2660
  7.252   2.2866
  7.242   2.2763
  7.232   2.3175
  7.222   2.3381
  7.212   2.3484
  7.202   2.3175
  7.192   2.3690
  7.182   2.3793
  7.172   2.3896
  7.162   2.3587
  7.152   2.3896
  7.143   2.3793
  7.133   2.3793
  7.123   2.4205
  7.113   2.4823
  7.103   2.4308
  7.094   2.4720
  7.084   2.4926
  7.074   2.4823
  7.065   2.4720
  7.055   2.4926
  7.046   2.4617
  7.036   2.5029
  7.026   2.5338
  7.017   2.5235
  7.007   2.5029
  6.998   2.5132
  6.989   2.4411
  6.979   2.4617
  6.970   2.5441
  6.960   2.5544
  6.951   2.5029
  6.942   2.5441
  6.932   2.5956
  6.923   2.6368
  6.914   2.6059
  6.905   2.5441
  6.896   2.5132
  6.886   2.5544
  6.877   2.5441
  6.868   2.5132
  6.859   2.4823
  6.850   2.5750
  6.841   2.6059
  6.832   2.5647
  6.823   2.5544
  6.814   2.5441
  6.805   2.5544
  6.796   2.6162
  6.787   2.6059
  6.778   2.6265
  6.770   2.6265
  6.761   2.6265
  6.752   2.6574
  6.743   2.6677
  6.734   2.6471
  6.726   2.6471
  6.717   2.6162
  6.708   2.6265
  6.700   2.6574
  6.691   2.7192
  6.682   2.6883
  6.674   2.6368
  6.665   2.6574
  6.657   2.6883
  6.648   2.6677
  6.640   2.7089
  6.631   2.6883
  6.623   2.6986
  6.614   2.7295
  6.606   2.7810
  6.597   2.7398
  6.589   2.7192
  6.581   2.6883
  6.572   2.6883
  6.564   2.7398
  6.556   2.7707
  6.547   2.7295
  6.539   2.6883
  6.531   2.6368
  6.523   2.7192
  6.514   2.7707
  6.506   2.7604
  6.498   2.7604
  6.490   2.7913
  6.482   2.8222
  6.474   2.8428
  6.466   2.8016
  6.458   2.8016
  6.450   2.7295
  6.442   2.7089
  6.434   2.7398
  6.426   2.7707
  6.418   2.6574
  6.410   2.6162
  6.402   2.6368
  6.394   2.6986
  6.386   2.7604
  6.378   2.7604
  6.370   2.7089
  6.363   2.6883
  6.355   2.6883
  6.347   2.7192
  6.339   2.7089
  6.332   2.6677
  6.324   2.6368
  6.316   2.6471
  6.308   2.6883
  6.301   2.7398
  6.293   2.7398
  6.286   2.7089
  6.278   2.6368
  6.270   2.6883
  6.263   2.7295
  6.255   2.7398
  6.248   2.6574
  6.240   2.6677
  6.233   2.7089
  6.225   2.7192
  6.218   2.7089
  6.210   2.7398
  6.203   2.7295
  6.195   2.7192
  6.188   2.6986
  6.181   2.6574
  6.173   2.6059
  6.166   2.6162
  6.159   2.6574
  6.151   2.6780
  6.144   2.6574
  6.137   2.6574
  6.130   2.6471
  6.122   2.6574
  6.115   2.5853
  6.108   2.5956
  6.101   2.6368
  6.094   2.6574
  6.086   2.6162
  6.079   2.6162
  6.072   2.6368
  6.065   2.6780
  6.058   2.6986
  6.051   2.7295
  6.044   2.6986
  6.037   2.6677
  6.030   2.6471
  6.023   2.7295
  6.016   2.7604
  6.009   2.6986
  6.002   2.6574
  5.995   2.7192
  5.988   2.7604
  5.981   2.8016
  5.974   2.7604
  5.967   2.7604
  5.960   2.7604
  5.954   2.7295
  5.947   2.7295
  5.940   2.7501
  5.933   2.7501
  5.926   2.8222
  5.920   2.8325
  5.913   2.8325
  5.906   2.8840
  5.899   2.8943
  5.893   2.8634
  5.886   2.8531
  5.879   2.8325
  5.873   2.8325
  5.866   2.8428
  5.859   2.8531
  5.853   2.8531
  5.846   2.8737
  5.840   2.8943
  5.833   2.9355
  5.827   2.9458
  5.820   2.9046
  5.813   2.9252
  5.807   2.9767
  5.800   2.9664
  5.794   2.9355
  5.788   2.9664
  5.781   3.0282
  5.775   3.0282
  5.768   3.0179
  5.762   3.0076
  5.755   3.0282
  5.749   3.0488
  5.743   3.0076
  5.736   2.9870
  5.730   3.0076
  5.724   2.9767
  5.717   2.9767
  5.711   3.0282
  5.705   3.0591
  5.698   3.0385
  5.692   3.0076
  5.686   2.9870
  5.680   3.0385
  5.674   3.0591
  5.667   3.0076
  5.661   2.9973
  5.655   3.0385
  5.649   3.0385
  5.643   3.0282
  5.637   3.0591
  5.630   3.0385
  5.624   3.0488
  5.618   3.0591
  5.612   3.0591
  5.606   3.0694
  5.600   3.0694
  5.594   3.0797
  5.588   3.0591
  5.582   3.1003
  5.576   3.1003
  5.570   3.0488
  5.564   3.0488
  5.558   3.0694
  5.552   3.1209
  5.546   3.1209
  5.540   3.0900
  5.534   3.1415
  5.528   3.1312
  5.523   3.0694
  5.517   3.0900
  5.511   3.1415
  5.505   3.1827
  5.499   3.2033
  5.493   3.1827
  5.487   3.1518
  5.482   3.1621
  5.476   3.1518
  5.470   3.1003
  5.464   3.1106
  5.459   3.1518
  5.453   3.2136
  5.447   3.2033
  5.441   3.2136
  5.436   3.1827
  5.430   3.1930
  5.424   3.2239
  5.419   3.2342
  5.413   3.2239
  5.407   3.2033
  5.402   3.1930
  5.396   3.2136
  5.390   3.2239
  5.385   3.2857
  5.379   3.2754
  5.374   3.2136
  5.368   3.2136
  5.363   3.2548
  5.357   3.2754
  5.352   3.3063
  5.346   3.2960
  5.341   3.2445
  5.335   3.2651
  5.330   3.3063
  5.324   3.3063
  5.319   3.3269
  5.313   3.3166
  5.308   3.3063
  5.302   3.2960
  5.297   3.3269
  5.291   3.2754
  5.286   3.2342
  5.281   3.2548
  5.275   3.3166
  5.270   3.3475
  5.265   3.3784
  5.259   3.3475
  5.254   3.3269
  5.249   3.2960
  5.243   3.3063
  5.238   3.3681
  5.233   3.4093
  5.227   3.3887
  5.222   3.3372
  5.217   3.3578
  5.212   3.3681
  5.206   3.3578
  5.201   3.3372
  5.196   3.3578
  5.191   3.4093
  5.186   3.4402
  5.180   3.3990
  5.175   3.4093
  5.170   3.3990
  5.165   3.3990
  5.160   3.3990
  5.155   3.4299
  5.150   3.4093
  5.145   3.3784
  5.139   3.3784
  5.134   3.3887
  5.129   3.4093
  5.124   3.4196
  5.119   3.4608
  5.114   3.4505
  5.109   3.4299
  5.104   3.4505
  5.099   3.4608
  5.094   3.4299
  5.089   3.4608
  5.084   3.4402
  5.079   3.4402
  5.074   3.5123
  5.069   3.5329
  5.064   3.4608
  5.059   3.4196
  5.054   3.4402
  5.049   3.4608
  5.044   3.4917
  5.040   3.5020
  5.035   3.4917
  5.030   3.5020
  5.025   3.5226
  5.020   3.5329
  5.015   3.5432
  5.010   3.5535
  5.005   3.5226
  5.001   3.5226
  4.996   3.5432
  4.991   3.5226
  4.986   3.5123
  4.981   3.4814
  4.977   3.5020
  4.972   3.5535
  4.967   3.5638
  4.962   3.5535
  4.958   3.5741
  4.953   3.5947
  4.948   3.5329
  4.943   3.5123
  4.939   3.5741
  4.934   3.5947
  4.929   3.5638
  4.925   3.5638
  4.920   3.5947
  4.915   3.6256
  4.911   3.6153
  4.906   3.6050
  4.901   3.6462
  4.897   3.6668
  4.892   3.6668
  4.888   3.6462
  4.883   3.6359
  4.878   3.6359
  4.874   3.6565
  4.869   3.6668
  4.865   3.6359
  4.860   3.6359
  4.856   3.6256
  4.851   3.6771
  4.846   3.6977
  4.842   3.6874
  4.837   3.6977
  4.833   3.7286
  4.828   3.7492
  4.824   3.7492
  4.819   3.7286
  4.815   3.6771
  4.810   3.6668
  4.806   3.7080
  4.802   3.7183
  4.797   3.7389
  4.793   3.6977
  4.788   3.6668
  4.784   3.6668
  4.779   3.7286
  4.775   3.7595
  4.771   3.7389
  4.766   3.7389
  4.762   3.7595
  4.758   3.7595
  4.753   3.8007
  4.749   3.7801
  4.744   3.7492
  4.740   3.7801
  4.736   3.8007
  4.731   3.7698
  4.727   3.7492
  4.723   3.7389
  4.719   3.7492
  4.714   3.7698
  4.710   3.7698
  4.706   3.7801
  4.701   3.7801
  4.697   3.7904
  4.693   3.8316
  4.689   3.8522
  4.684   3.8213
  4.680   3.8522
  4.676   3.8831
  4.672   3.8625
  4.668   3.8213
  4.663   3.8110
  4.659   3.8110
  4.655   3.8625
  4.651   3.8831
  4.647   3.9037
  4.643   3.8831
  4.638   3.8934
  4.634   3.9346
  4.630   3.9037
  4.626   3.8625
  4.622   3.9243
  4.618   3.9346
  4.614   3.9861
  4.610   3.9346
  4.605   3.8728
  4.601   3.9037
  4.597   3.9346
  4.593   3.9140
  4.589   3.8831
  4.585   3.8934
  4.581   3.9552
  4.577   3.9552
  4.573   3.8831
  4.569   3.9140
  4.565   3.9758
  4.561   3.9964
  4.557   3.9758
  4.553   3.9449
  4.549   3.9243
  4.545   3.9552
  4.541   4.0067
  4.537   4.0273
  4.533   4.0479
  4.529   4.0582
  4.525   4.0582
  4.521   4.0479
  4.517   4.0067
  4.513   3.9449
  4.509   3.9861
  4.505   4.0685
  4.502   4.0685
  4.498   4.1200
  4.494   4.1200
  4.490   3.9861
  4.486   3.9655
  4.482   4.0067
  4.478   4.0685
  4.474   4.0891
  4.470   4.0479
  4.467   4.0067
  4.463   4.0479
  4.459   4.1509
  4.455   4.1097
  4.451   4.0788
  4.447   4.1200
  4.444   4.1200
  4.440   4.0582
  4.436   4.0273
  4.432   4.0582
  4.428   4.0891
  4.425   4.1509
  4.421   4.1818
  4.417   4.1406
  4.413   4.1715
  4.410   4.1921
  4.406   4.1406
  4.402   4.1509
  4.398   4.1715
  4.395   4.1097
  4.391   4.1303
  4.387   4.2127
  4.384   4.2333
  4.380   4.1818
  4.376   4.1921
  4.372   4.2333
  4.369   4.2333
  4.365   4.1818
  4.361   4.1097
  4.358   4.1509
  4.354   4.1715
  4.350   4.1200
  4.347   4.1921
  4.343   4.2642
  4.340   4.1818
  4.336   4.1200
  4.332   4.1921
  4.329   4.2333
  4.325   4.1715
  4.321   4.1715
  4.318   4.1715
  4.314   4.2642
  4.311   4.3157
  4.307   4.2745
  4.304   4.2539
  4.300   4.3054
  4.296   4.3569
  4.293   4.3981
  4.289   4.3775
  4.286   4.3672
  4.282   4.3775
  4.279   4.3260
  4.275   4.2848
  4.272   4.2745
  4.268   4.2951
  4.265   4.3054
  4.261   4.3054
  4.258   4.2951
  4.254   4.2642
  4.251   4.3363
  4.247   4.4496
  4.244   4.4599
  4.240   4.4805
  4.237   4.4496
  4.233   4.3157
  4.230   4.3157
  4.226   4.4187
  4.223   4.4702
  4.219   4.4393
  4.216   4.4290
  4.213   4.3672
  4.209   4.3775
  4.206   4.4393
  4.202   4.4084
  4.199   4.3363
  4.196   4.3260
  4.192   4.3157
  4.189   4.3054
  4.185   4.3157
  4.182   4.3260
  4.179   4.3260
  4.175   4.3569
  4.172   4.2642
  4.169   4.2642
  4.165   4.2951
  4.162   4.3363
  4.159   4.3878
  4.155   4.3775
  4.152   4.3569
  4.149   4.4496
  4.145   4.4702
  4.142   4.3981
  4.139   4.3260
  4.135   4.3672
  4.132   4.3672
  4.129   4.3878
  4.126   4.3981
  4.122   4.4187
  4.119   4.3981
  4.116   4.3569
  4.112   4.3260
  4.109   4.3157
  4.106   4.3363
  4.103   4.4084
  4.099   4.4187
  4.096   4.4496
  4.093   4.4702
  4.090   4.4805
  4.086   4.4496
  4.083   4.4496
  4.080   4.4599
  4.077   4.4805
  4.074   4.4599
  4.070   4.4702
  4.067   4.4084
  4.064   4.3981
  4.061   4.4393
  4.058   4.5217
  4.055   4.5114
  4.051   4.5217
  4.048   4.4908
  4.045   4.4599
  4.042   4.4805
  4.039   4.5114
  4.036   4.4084
  4.032   4.4084
  4.029   4.4702
  4.026   4.5011
  4.023   4.5011
  4.020   4.5217
  4.017   4.5114
  4.014   4.4496
  4.011   4.5114
  4.008   4.5217
  4.004   4.4084
  4.001   4.3981
  3.998   4.4084
  3.995   4.4393
  3.992   4.4908
  3.989   4.4805
  3.986   4.4599
  3.983   4.4908
  3.980   4.4702
  3.977   4.5114
  3.974   4.5114
  3.971   4.4702
  3.968   4.4496
  3.965   4.4599
  3.962   4.4084
  3.959   4.4393
  3.956   4.4702
  3.953   4.4908
  3.950   4.5423
  3.947   4.5320
  3.944   4.4496
  3.941   4.4702
  3.938   4.5320
  3.935   4.5526
  3.932   4.5217
  3.929   4.5320
  3.926   4.6144
  3.923   4.6659
  3.920   4.6041
  3.917   4.4702
  3.914   4.4805
  3.911   4.5629
  3.908   4.5526
  3.905   4.5320
  3.902   4.5938
  3.899   4.6041
  3.896   4.5732
  3.893   4.6041
  3.890   4.5114
  3.887   4.5217
  3.884   4.5835
  3.882   4.5938
  3.879   4.5011
  3.876   4.5217
  3.873   4.5423
  3.870   4.4908
  3.867   4.5629
  3.864   4.6968
  3.861   4.6350
  3.858   4.6350
  3.856   4.6247
  3.853   4.5629
  3.850   4.5320
  3.847   4.5526
  3.844   4.5423
  3.841   4.6144
  3.838   4.6865
  3.836   4.7174
  3.833   4.6762
  3.830   4.6350
  3.827   4.6041
  3.824   4.6041
  3.822   4.5732
  3.819   4.5526
  3.816   4.5835
  3.813   4.6556
  3.810   4.6556
  3.807   4.6350
  3.805   4.6144
  3.802   4.6659
  3.799   4.6350
  3.796   4.6762
  3.794   4.6762
  3.791   4.6865
  3.788   4.6556
  3.785   4.6659
  3.782   4.6247
  3.780   4.6865
  3.777   4.7483
  3.774   4.7792
  3.771   4.7380
  3.769   4.6762
  3.766   4.6556
  3.763   4.6144
  3.761   4.6453
  3.758   4.6865
  3.755   4.6659
  3.752   4.6968
  3.750   4.7689
  3.747   4.7483
  3.744   4.6350
  3.742   4.6556
  3.739   4.6659
  3.736   4.6247
  3.733   4.6556
  3.731   4.7071
  3.728   4.7380
  3.725   4.7586
  3.723   4.7174
  3.720   4.7586
  3.717   4.7998
  3.715   4.7380
  3.712   4.6762
  3.709   4.6659
  3.707   4.6041
  3.704   4.5732
  3.702   4.4908
  3.699   4.5423
  3.696   4.7071
  3.694   4.7998
  3.691   4.7998
  3.688   4.7895
  3.686   4.7277
  3.683   4.7071
  3.680   4.6865
  3.678   4.6453
  3.675   4.6556
  3.673   4.7483
  3.670   4.7483
  3.667   4.7689
  3.665   4.8307
  3.662   4.7792
  3.660   4.7174
  3.657   4.7483
  3.655   4.7792
  3.652   4.7689
  3.649   4.7586
  3.647   4.7380
  3.644   4.7895
  3.642   4.8513
  3.639   4.7792
  3.637   4.7071
  3.634   4.6762
  3.632   4.6968
  3.629   4.7071
  3.626   4.8101
  3.624   4.8204
  3.621   4.7586
  3.619   4.6968
  3.616   4.7071
  3.614   4.7071
  3.611   4.7586
  3.609   4.7792
  3.606   4.8101
  3.604   4.7998
  3.601   4.8204
  3.599   4.7792
  3.596   4.7689
  3.594   4.7792
  3.591   4.7483
  3.589   4.8204
  3.586   4.9028
  3.584   4.7998
  3.581   4.7380
  3.579   4.7380
  3.576   4.7689
  3.574   4.7792
  3.571   4.8204
  3.569   4.7586
  3.567   4.7277
  3.564   4.7998
  3.562   4.7792
  3.559   4.7071
  3.557   4.7174
  3.554   4.7380
  3.552   4.7277
  3.549   4.6865
  3.547   4.7277
  3.545   4.7483
  3.542   4.7380
  3.540   4.7071
  3.537   4.8101
  3.535   4.8822
  3.533   4.8101
  3.530   4.7998
  3.528   4.8204
  3.525   4.7071
  3.523   4.6659
  3.521   4.7380
  3.518   4.7689
  3.516   4.7380
  3.513   4.7689
  3.511   4.7895
  3.509   4.7483
  3.506   4.6556
  3.504   4.6350
  3.502   4.5938
  3.499   4.6556
  3.497   4.7277
  3.494   4.7380
  3.492   4.7895
  3.490   5.0058
  3.487   5.0058
  3.485   4.7174
  3.483   4.5526
  3.480   4.6350
  3.478   4.6865
  3.476   4.6968
  3.473   4.6968
  3.471   4.7586
  3.469   4.7998
  3.466   4.8925
  3.464   4.8719
  3.462   4.7689
  3.460   4.6659
  3.457   4.6865
  3.455   4.7277
  3.453   4.7380
  3.450   4.7998
  3.448   4.7998
  3.446   4.7586
  3.443   4.7483
  3.441   4.7380
  3.439   4.8307
  3.437   4.8616
  3.434   4.7483
  3.432   4.6762
  3.430   4.7586
  3.428   4.7895
  3.425   4.7998
  3.423   4.7483
  3.421   4.7586
  3.418   4.7277
  3.416   4.7174
  3.414   4.6453
  3.412   4.6453
  3.409   4.6659
  3.407   4.7174
  3.405   4.7071
  3.403   4.7483
  3.401   4.6453
  3.398   4.6350
  3.396   4.7586
  3.394   4.7895
  3.392   4.7174
  3.389   4.7174
  3.387   4.7483
  3.385   4.7277
  3.383   4.7071
  3.381   4.7586
  3.378   4.8101
  3.376   4.7895
  3.374   4.6453
  3.372   4.6350
  3.370   4.7586
  3.367   4.7998
  3.365   4.7174
  3.363   4.7895
  3.361   4.8204
  3.359   4.8307
  3.357   4.8204
  3.354   4.8307
  3.352   4.7689
  3.350   4.7174
  3.348   4.7380
  3.346   4.7895
  3.344   4.7483
  3.341   4.7895
  3.339   4.8719
  3.337   4.9234
  3.335   4.8307
  3.333   4.7174
  3.331   4.6968
  3.329   4.7174
  3.326   4.6968
  3.324   4.7895
  3.322   4.8204
  3.320   4.7586
  3.318   4.7689
  3.316   4.8410
  3.314   4.7586
  3.312   4.7483
  3.309   4.7792
  3.307   4.7998
  3.305   4.7277
  3.303   4.7277
  3.301   4.7998
  3.299   4.8513
  3.297   4.8204
  3.295   4.8925
  3.293   4.8101
  3.291   4.7689
  3.288   4.8204
  3.286   4.7689
  3.284   4.7277
  3.282   4.8410
  3.280   4.7998
  3.278   4.7586
  3.276   4.7998
  3.274   4.8513
  3.272   4.8101
  3.270   4.6762
  3.268   4.6556
  3.266   4.7792
  3.264   4.7792
  3.262   4.6865
  3.259   4.6659
  3.257   4.7586
  3.255   4.7380
  3.253   4.6350
  3.251   4.7174
  3.249   4.8513
  3.247   4.8513
  3.245   4.8307
  3.243   4.8307
  3.241   4.8204
  3.239   4.7483
  3.237   4.6350
  3.235   4.5629
  3.233   4.6350
  3.231   4.6865
  3.229   4.7174
  3.227   4.6865
  3.225   4.7277
  3.223   4.7792
  3.221   4.7174
  3.219   4.6247
  3.217   4.6968
  3.215   4.6659
  3.213   4.7483
  3.211   4.7586
  3.209   4.7792
  3.207   4.7174
  3.205   4.7174
  3.203   4.6865
  3.201   4.7483
  3.199   4.7586
  3.197   4.7071
  3.195   4.7277
  3.193   4.6865
  3.191   4.5629
  3.189   4.6453
  3.187   4.7071
  3.185   4.7277
  3.183   4.7998
  3.182   4.7792
  3.180   4.6865
  3.178   4.7380
  3.176   4.6659
  3.174   4.6453
  3.172   4.6350
  3.170   4.6659
  3.168   4.7380
  3.166   4.7689
  3.164   4.7998
  3.162   4.9337
  3.160   4.8204
  3.158   4.7174
  3.156   4.6350
  3.154   4.6041
  3.152   4.7071
  3.151   4.8513
  3.149   4.7792
  3.147   4.8101
  3.145   4.7174
  3.143   4.6865
  3.141   4.6659
  3.139   4.6865
  3.137   4.6453
  3.135   4.6762
  3.133   4.7483
  3.132   4.7483
  3.130   4.6556
  3.128   4.6659
  3.126   4.6762
  3.124   4.5629
  3.122   4.4805
  3.120   4.5938
  3.118   4.7277
  3.117   4.7689
  3.115   4.7483
  3.113   4.7998
  3.111   4.8719
  3.109   4.8307
  3.107   4.7277
  3.105   4.6968
  3.103   4.6556
  3.102   4.6144
  3.100   4.6144
  3.098   4.6041
  3.096   4.5938
  3.094   4.6247
  3.092   4.7277
  3.091   4.8513
  3.089   4.7071
  3.087   4.5629
  3.085   4.5526
  3.083   4.7071
  3.081   4.7277
  3.079   4.7689
  3.078   4.8101
  3.076   4.6453
  3.074   4.5320
  3.072   4.5217
  3.070   4.5835
  3.069   4.6865
  3.067   4.6556
  3.065   4.5835
  3.063   4.6556
  3.061   4.7792
  3.060   4.7483
  3.058   4.6762
  3.056   4.6247
  3.054   4.7483
  3.052   4.6968
  3.051   4.6144
  3.049   4.6762
  3.047   4.7895
  3.045   4.7277
  3.043   4.6968
  3.042   4.8101
  3.040   4.8513
  3.038   4.6659
  3.036   4.5938
  3.034   4.6762
  3.033   4.7586
  3.031   4.6968
  3.029   4.6556
  3.027   4.6762
  3.026   4.5526
  3.024   4.6247
  3.022   4.8101
  3.020   4.8101
  3.019   4.7380
  3.017   4.6659
  3.015   4.7174
  3.013   4.7277
  3.012   4.7277
  3.010   4.7792
  3.008   4.8719
  3.006   4.8101
  3.005   4.8925
  3.003   4.7895
  3.001   4.6659
  2.999   4.6556
  2.998   4.6865
  2.996   4.6350
  2.994   4.7071
  2.992   4.9028
  2.991   5.0058
  2.989   4.7277
  2.987   4.7277
  2.986   4.6453
  2.984   4.5320
  2.982   4.4702
  2.980   4.5423
  2.979   4.7071
  2.977   4.7895
  2.975   4.7483
  2.974   4.7895
  2.972   4.6865
  2.970   4.7380
  2.968   4.6762
  2.967   4.6247
  2.965   4.5938
  2.963   4.8410
  2.962   4.8513
  2.960   4.7689
  2.958   4.6556
  2.957   4.7174
  2.955   4.8410
  2.953   4.7586
  2.952   4.5423
  2.950   4.7586
  2.948   4.8616
  2.947   4.7174
  2.945   4.7071
  2.943   4.8513
  2.942   4.8101
  2.940   4.7174
  2.938   4.6556
  2.937   4.5732
  2.935   4.4702
  2.933   4.7277
  2.932   4.8513
  2.930   4.7998
  2.928   4.6865
  2.927   4.7895
  2.925   4.9440
  2.923   4.9440
  2.922   4.8101
  2.920   4.6453
  2.918   4.4599
  2.917   4.6247
  2.915   4.7277
  2.913   4.7483
  2.912   4.6659
  2.910   4.6247
  2.909   4.7071
  2.907   4.7483
  2.905   4.7586
  2.904   4.7998
  2.902   4.8513
  2.900   4.7792
  2.899   4.7277
  2.897   4.7792
  2.896   4.7895
  2.894   4.8719
  2.892   4.8101
  2.891   4.8616
  2.889   4.7483
  2.887   4.6350
  2.886   4.7380
  2.884   4.8925
  2.883   4.9440
  2.881   5.0161
  2.879   4.8307
  2.878   4.6659
  2.876   4.7174
  2.875   4.7998
  2.873   4.7895
  2.871   4.7998
  2.870   4.8719
  2.868   4.9337
  2.867   4.7998
  2.865   4.8513
  2.864   4.9234
  2.862   4.8410
  2.860   5.0161
  2.859   5.2221
  2.857   4.8822
  2.856   4.6968
  2.854   4.8101
  2.853   5.0161
  2.851   4.9028
  2.849   4.9028
  2.848   4.9852
  2.846   5.0470
  2.845   4.9646
  2.843   4.7998
  2.842   4.6144
  2.840   4.7792
  2.838   4.8101
  2.837   4.7483
  2.835   4.7586
  2.834   4.6865
  2.832   4.5835
  2.831   4.8307
  2.829   5.0161
  2.828   4.8925
  2.826   4.8410
  2.825   5.0470
  2.823   4.9131
  2.821   4.6041
  2.820   4.6041
  2.818   4.7792
  2.817   4.7895
  2.815   4.7792
  2.814   4.8307
  2.812   4.9543
  2.811   5.0264
  2.809   5.0367
  2.808   4.9028
  2.806   4.9028
  2.805   4.9131
  2.803   5.1500
  2.802   5.2942
  2.800   5.1088
  2.799   4.9337
  2.797   4.9852
  2.796   4.9440
  2.794   4.9646
  2.793   4.9646
  2.791   5.0882
  2.790   5.1294
  2.788   5.1500
  2.787   5.1088
  2.785   5.2324
  2.784   5.1500
  2.782   5.1088
  2.781   5.1912
  2.779   5.2221
  2.778   5.2118
  2.776   5.2015
  2.775   5.0573
  2.773   4.8513
  2.772   5.0676
  2.770   5.4487
  2.769   5.3972
  2.767   5.3251
  2.766   5.2427
  2.764   5.1088
  2.763   5.1294
  2.761   5.2530
  2.760   5.1294
  2.758   5.1397
  2.757   5.1500
  2.756   5.1809
  2.754   5.2530
  2.753   5.2839
  2.751   5.1603
  2.750   5.3457
  2.748   5.4693
  2.747   5.4899
  2.745   5.3251
  2.744   5.3045
  2.742   5.3457
  2.741   5.3972
  2.740   5.5105
  2.738   5.7577
  2.737   5.5620
  2.735   5.5517
  2.734   5.3972
  2.732   5.2633
  2.731   5.1706
  2.729   5.3869
  2.728   5.6444
  2.727   5.7680
  2.725   5.5208
  2.724   5.3457
  2.722   5.3045
  2.721   5.5517
  2.719   5.6032
  2.718   5.5723
  2.717   5.7474
  2.715   5.7371
  2.714   5.6238
  2.712   5.7680
  2.711   5.8195
  2.709   5.7989
  2.708   5.9843
  2.707   5.9328
  2.705   5.8813
  2.704   5.8298
  2.702   5.6238
  2.701   5.7680
  2.700   5.7165
  2.698   5.5311
  2.697   5.6753
  2.695   5.8916
  2.694   5.9740
  2.693   6.0255
  2.691   5.9843
  2.690   5.9740
  2.688   5.7062
  2.687   5.6547
  2.686   5.9328
  2.684   6.1697
  2.683   6.0358
  2.681   6.0049
  2.680   5.8607
  2.679   6.1491
  2.677   6.2521
  2.676   5.9843
  2.675   5.8916
  2.673   6.2315
  2.672   6.3242
  2.670   6.1079
  2.669   6.1285
  2.668   6.4272
  2.666   6.1079
  2.665   5.9122
  2.664   6.1182
  2.662   6.3757
  2.661   6.2830
  2.659   6.1697
  2.658   5.8813
  2.657   5.8092
  2.655   6.0049
  2.654   6.0667
  2.653   6.0976
  2.651   6.2624
  2.650   6.2109
  2.649   6.2006
  2.647   6.3242
  2.646   6.3448
  2.645   6.2109
  2.643   6.2727
  2.642   6.0564
  2.640   6.1079
  2.639   6.2006
  2.638   6.0049
  2.636   5.8401
  2.635   6.0667
  2.634   6.0667
  2.632   5.9637
  2.631   5.8504
  2.630   6.1800
  2.628   6.4787
  2.627   6.3654
  2.626   6.2418
  2.624   6.1903
  2.623   6.1285
  2.622   6.2933
  2.620   6.4581
  2.619   6.5096
  2.618   6.3757
  2.617   6.4478
  2.615   6.3345
  2.614   6.1388
  2.613   6.0976
  2.611   6.1079
  2.610   6.1285
  2.609   6.4684
  2.607   6.5199
  2.606   6.3242
  2.605   6.3860
  2.603   6.5920
  2.602   6.3757
  2.601   6.2624
  2.599   5.9328
  2.598   5.8813
  2.597   6.2418
  2.596   6.3448
  2.594   6.2727
  2.593   6.2418
  2.592   6.3448
  2.590   6.5508
  2.589   6.3036
  2.588   6.3860
  2.586   6.4787
  2.585   6.0358
  2.584   5.9431
  2.583   6.2315
  2.581   6.1800
  2.580   6.2933
  2.579   6.3242
  2.577   6.4272
  2.576   6.4993
  2.575   6.1388
  2.574   5.9431
  2.572   6.4478
  2.571   6.5714
  2.570   6.5920
  2.569   6.5714
  2.567   6.3139
  2.566   6.0770
  2.565   6.0564
  2.563   6.0770
  2.562   6.2727
  2.561   6.2624
  2.560   6.3242
  2.558   6.3345
  2.557   6.2521
  2.556   6.1182
  2.555   6.2830
  2.553   6.4169
  2.552   6.3860
  2.551   6.1388
  2.550   6.2212
  2.548   6.1903
  2.547   6.1903
  2.546   6.2624
  2.545   6.3448
  2.543   6.3139
  2.542   6.0152
  2.541   6.2006
  2.540   6.6229
  2.538   6.4272
  2.537   6.3551
  2.536   6.5096
  2.535   6.5302
  2.533   6.4272
  2.532   6.3963
  2.531   6.3448
  2.530   6.3036
  2.528   6.1182
  2.527   6.0976
  2.526   6.4169
  2.525   6.5714
  2.524   6.3139
  2.522   6.1491
  2.521   6.2212
  2.520   6.2624
  2.519   6.1079
  2.517   6.1182
  2.516   6.2521
  2.515   6.4169
  2.514   6.2727
  2.513   6.3345
  2.511   6.3139
  2.510   6.1182
  2.509   6.1491
  2.508   6.5714
  2.506   6.6023
  2.505   6.3860
  2.504   6.4375
  2.503   6.5920
  2.502   6.3345
  2.500   6.3654
  2.496   6.6137
  2.492   7.0288
  2.488   6.9045
  2.484   6.6387
  2.480   6.9130
  2.476   6.9180
  2.472   6.6839
  2.468   6.9093
  2.464   7.1036
  2.460   7.3768
  2.456   7.2340
  2.452   6.9853
  2.448   6.9062
  2.444   7.0302
  2.440   6.5432
  2.436   7.0436
  2.432   6.5588
  2.428   7.1747
  2.424   7.2620
  2.420   7.3799
  2.416   7.2976
  2.412   6.9365
  2.408   6.8940
  2.404   6.9351
  2.400   6.7524
  2.396   7.5499
  2.392   7.1377
  2.388   7.1528
  2.384   7.6199
  2.380   7.3412
  2.376   7.4386
  2.372   6.9492
  2.368   7.1154
  2.364   7.5382
  2.360   7.1215
  2.356   7.6256
  2.352   7.4672
  2.348   7.3210
  2.344   7.2426
  2.340   7.5509
  2.336   7.4464
  2.332   7.6209
  2.328   7.4543
  2.324   7.5280
  2.320   7.2394
  2.316   7.3928
  2.312   7.4345
  2.308   7.4943
  2.304   7.5306
  2.300   7.5241
  2.296   7.6713
  2.292   7.5231
  2.288   7.4172
  2.284   7.3763
  2.280   7.7368
  2.276   7.5445
  2.272   7.3705
  2.268   7.7157
  2.264   7.5556
  2.260   7.6317
  2.256   7.5814
  2.252   7.5254
  2.248   7.6840
  2.244   7.7375
  2.240   7.7501
  2.236   7.6889
  2.232   7.7122
  2.228   7.7877
  2.224   7.8657
  2.220   7.6716
  2.216   7.6588
  2.212   7.7259
  2.208   7.9443
  2.204   7.8944
  2.200   7.8899
  2.196   7.8272
  2.192   8.0192
  2.188   8.0226
  2.184   8.0335
  2.180   7.9872
  2.176   8.0223
  2.172   8.1783
  2.168   8.1935
  2.164   8.1462
  2.160   8.1875
  2.156   8.1246
  2.152   8.2083
  2.148   8.2111
  2.144   8.1595
  2.140   8.1855
  2.136   8.2037
  2.132   8.1618
  2.128   8.2358
  2.124   8.1950
  2.120   8.1919
  2.116   8.1573
  2.112   8.1758
  2.108   8.0662
  2.104   8.1341
  2.100   8.2130
  2.096   8.1642
  2.092   8.1057
  2.088   8.1951
  2.084   8.1698
  2.080   8.2025
  2.076   8.2593
  2.072   8.3435
  2.068   8.3437
  2.064   8.2798
  2.060   8.2839
  2.056   8.3628
  2.052   8.4080
  2.048   8.4368
  2.044   8.4390
  2.040   8.4677
  2.036   8.4303
  2.032   8.3907
  2.028   8.4688
  2.024   8.5356
  2.020   8.5204
  2.016   8.5327
  2.012   8.5563
  2.008   8.5691
  2.004   8.6254
  2.000   8.6532
  1.996   8.6583
  1.992   8.6356
  1.988   8.6429
  1.984   8.6603
  1.980   8.6734
  1.976   8.7111
  1.972   8.7209
  1.968   8.7391
  1.964   8.7948
  1.960   8.7983
  1.956   8.7855
  1.952   8.8199
  1.948   8.8561
  1.944   8.7998
  1.940   8.8070
  1.936   8.8042
  1.932   8.8240
  1.928   8.7667
  1.924   8.7595
  1.920   8.7419
  1.916   8.6678
  1.912   8.5676
  1.908   8.5284
  1.904   8.6082
  1.900   8.5653
  1.896   8.5640
  1.892   8.6566
  1.888   8.5782
  1.884   8.6374
  1.880   8.7988
  1.876   8.8473
  1.872   8.8951
  1.868   8.9599
  1.864   8.9122
  1.860   8.8303
  1.856   8.8866
  1.852   8.9470
  1.848   8.9438
  1.844   8.9662
  1.840   8.9936
  1.836   9.0405
  1.832   8.9962
  1.828   8.9138
  1.824   8.9416
  1.820   8.9802
  1.816   9.0298
  1.812   9.0723
  1.808   9.0756
  1.804   9.0848
  1.800   9.1143
  1.796   9.1149
  1.792   9.1309
  1.788   9.2075
  1.784   9.2611
  1.780   9.2946
  1.776   9.2981
  1.772   9.2870
  1.768   9.2790
  1.764   9.2832
  1.760   9.2770
  1.756   9.2903
  1.752   9.3114
  1.748   9.3364
  1.744   9.3546
  1.740   9.3624
  1.736   9.3535
  1.732   9.3714
  1.728   9.4036
  1.724   9.4151
  1.720   9.4094
  1.716   9.4371
  1.712   9.4548
  1.708   9.4673
  1.704   9.4595
  1.700   9.4655
  1.696   9.4782
  1.692   9.5342
  1.688   9.5734
  1.684   9.5963
  1.680   9.5700
  1.676   9.5616
  1.672   9.5567
  1.668   9.5289
  1.664   9.5784
  1.660   9.5603
  1.656   9.5416
  1.652   9.5554
  1.648   9.6043
  1.644   9.6007
  1.640   9.6387
  1.636   9.6299
  1.632   9.6342
  1.628   9.6599
  1.624   9.6469
  1.620   9.6387
  1.616   9.6852
  1.612   9.6783
  1.608   9.6633
  1.604   9.6936
  1.600   9.7046
  1.596   9.7477
  1.592   9.7677
  1.588   9.7675
  1.584   9.7473
  1.580   9.7479
  1.576   9.7938
  1.572   9.8028
  1.568   9.8349
  1.564   9.7807
  1.560   9.8206
  1.556   9.8284
  1.552   9.8474
  1.548   9.8237
  1.544   9.8562
  1.540   9.8879
  1.536   9.8582
  1.532   9.8691
  1.528   9.8674
  1.524   9.8808
  1.520   9.9500
  1.516   9.9383
  1.512   9.9169
  1.508   9.9677
  1.504   9.9568
  1.500   9.9736
  1.496  10.0083
  1.492   9.9598
  1.488  10.0238
  1.484  10.0065
  1.480   9.9994
  1.476  10.0686
  1.472  10.0409
  1.468  10.0305
  1.464  10.0808
  1.460  10.0721
  1.456  10.1441
  1.452  10.1242
  1.448  10.1489
  1.444  10.1356
  1.440  10.1185
  1.436  10.1460
  1.432  10.1435
  1.428  10.1672
  1.424  10.1984
  1.420  10.1704
  1.416  10.1920
  1.412  10.2206
  1.408  10.2381
  1.404  10.2313
  1.400  10.2671
  1.396  10.2319
  1.392  10.2208
  1.388  10.2397
  1.384  10.3456
  1.380  10.4070
  1.376  10.3032
  1.372  10.2038
  1.368  10.3849
  1.364  10.5134
  1.360  10.4323
  1.356  10.2951
  1.352  10.2544
  1.348  10.2790
  1.344  10.3354
  1.340  10.4603
  1.336  10.5637
  1.332  10.4948
  1.328  10.4380
  1.324  10.4506
  1.320  10.4341
  1.316  10.4553
  1.312  10.4699
  1.308  10.4881
  1.304  10.5083
  1.300  10.5268
  1.296  10.5559
  1.292  10.6314
  1.288  10.5825
  1.284  10.5558
  1.280  10.6020
  1.276  10.6083
  1.272  10.6724
  1.268  10.6620
  1.264  10.6520
  1.260  10.6561
  1.256  10.7459
  1.252  10.7214
  1.248  10.7153
  1.244  10.7645
  1.240  10.7959
  1.236  10.8022
  1.232  10.8087
  1.228  10.7984
  1.224  10.8813
  1.220  10.8627
  1.216  10.8369
  1.212  10.8656
  1.208  10.9347
  1.204  10.9323
  1.200  10.8955
  1.196  10.9201
  1.192  10.9852
  1.188  10.9461
  1.184  10.9466
  1.180  11.0433
  1.176  11.0763
  1.172  11.0920
  1.168  11.0964
  1.164  11.1225
  1.160  11.1505
  1.156  11.1376
  1.152  11.1904
  1.148  11.1997
  1.144  11.1729
  1.140  11.2217
  1.136  11.2376
  1.132  11.2606
  1.128  11.2697
  1.124  11.2916
  1.120  11.2877
  1.116  11.3320
  1.112  11.3086
  1.108  11.3377
  1.104  11.3468
  1.100  11.4199
  1.096  11.3989
  1.092  11.3791
  1.088  11.4059
  1.084  11.3992
  1.080  11.3867
  1.076  11.5044
  1.072  11.4861
  1.068  11.4630
  1.064  11.4954
  1.060  11.5022
  1.056  11.5286
  1.052  11.6213
  1.048  11.6712
  1.044  11.6352
  1.040  11.6854
  1.036  11.7005
  1.032  11.7205
  1.028  11.7704
  1.024  11.8217
  1.020  11.8643
  1.016  11.8947
  1.012  11.9302
  1.008  11.9664
  1.004  12.0116
  1.000  12.0701
  0.996  12.0901
  0.992  12.1924
  0.988  12.2140
  0.984  12.2441
  0.980  12.3098
  0.976  12.3719
  0.972  12.4157
  0.968  12.4475
  0.964  12.5267
  0.960  12.6118
  0.956  12.6646
  0.952  12.6769
  0.948  12.7499
  0.944  12.8348
  0.940  12.8540
  0.936  12.8929
  0.932  12.9239
  0.928  13.0864
  0.924  13.2730
  0.920  13.3846
  0.916  13.4424
  0.912  13.4507
  0.908  13.5650
  0.904  13.6989
  0.900  13.6648
  0.896  13.6457
  0.892  13.8008
  0.888  13.9165
  0.884  13.8859
  0.880  13.9468
  0.876  14.0057
  0.872  13.9037
  0.868  14.0206
  0.864  13.9446
  0.860  14.0749
  0.856  14.2630
  0.852  14.4379
  0.848  14.5311
  0.844  14.4742
  0.840  14.5525
  0.836  14.5812
  0.832  14.6056
  0.828  14.6803
  0.824  14.6980
  0.820  14.6944
  0.816  14.7080
  0.812  14.8073
  0.808  14.8552
  0.804  14.8986
  0.800  14.9229
  0.796  14.9637
  0.792  15.0246
  0.788  15.0326
  0.784  15.0928
  0.780  15.1357
  0.776  15.2045
  0.772  15.2437
  0.768  15.2654
  0.764  15.2981
  0.760  15.3369
  0.756  15.4079
  0.752  15.4659
  0.748  15.5313
  0.744  15.5667
  0.740  15.6192
  0.736  15.6418
  0.732  15.7007
  0.728  15.7507
  0.724  15.7950
  0.720  15.8499
  0.716  15.8855
  0.712  15.9330
  0.708  15.9873
  0.704  16.0507
  0.700  16.0820
  0.696  16.1217
  0.692  16.1718
  0.688  16.1880
  0.684  16.2334
  0.680  16.2962
  0.676  16.3340
  0.672  16.3825
  0.668  16.3985
  0.664  16.4451
  0.660  16.4925
  0.656  16.5389
  0.652  16.5866
  0.648  16.6265
  0.644  16.6400
  0.640  16.6974
  0.636  16.7561
  0.632  16.8006
  0.628  16.8575
  0.624  16.8864
  0.620  16.9294
  0.616  17.0166
  0.612  17.0577
  0.608  17.0976
  0.604  17.1351
  0.600  17.1738
  0.596  17.2345
  0.592  17.2748
  0.588  17.3302
  0.584  17.3713
  0.580  17.3989
  0.576  17.4497
  0.572  17.4854
  0.568  17.5200
  0.564  17.5595
  0.560  17.6031
  0.556  17.6447
  0.552  17.6771
  0.548  17.7073
  0.544  17.7493
  0.540  17.7737
  0.536  17.8246
  0.532  17.8834
  0.528  17.9137
  0.524  17.9543
  0.520  18.0005
  0.516  18.0384
  0.512  18.0794
  0.508  18.1133
  0.504  18.1619
  0.500  18.1951
  0.496  18.2097
  0.492  18.2220
  0.488  18.2244
  0.484  18.2614
  0.480  18.3090
  0.476  18.3761
  0.472  18.4246
  0.468  18.4748
  0.464  18.5406
  0.460  18.5707
  0.456  18.6209
  0.452  18.6638
  0.448  18.6934
  0.444  18.7805
  0.440  18.8873
  0.436  18.9611
  0.432  19.0676
  0.428  19.1454
  0.424  19.1782
  0.420  19.2336
  0.416  19.2852
  0.412  19.3159
  0.408  19.3358
  0.404  19.3465
  0.400  19.3546
