Name: Rhyolite
Type: Rock
Class: Igneous
Subclass: Felsic
Particle Size: Whole Rock Chips
Sample No.: AP-938-91
Owner: United States Geological Survey, L. C. Rowan
Wavelength range: 0.405 - 14.05 um
Origin: Iberian Pyrite Belt, Spain

Description: Rhyolite, fresh, blue-gray





Measurement: Directional Hemispherical Reflectance
First Column: X
Second Column: Y
X Units: Wavelength (micrometers)
Y Units: Reflectance (percent)
First X Value: 14.05105
Last X Value: 0.40500
Number of X Values: 2530
Additional Information: rhy91a.txt

 14.051   2.9870
 14.013   3.1827
 13.975   3.4196
 13.938   3.4917
 13.900   3.4711
 13.863   3.3681
 13.826   3.5329
 13.790   3.6050
 13.753   3.5844
 13.717   3.5226
 13.680   3.3887
 13.644   3.3269
 13.609   3.5432
 13.573   3.6565
 13.538   3.6256
 13.502   3.6668
 13.467   3.8110
 13.432   3.9140
 13.398   3.9861
 13.363   4.0067
 13.329   3.9964
 13.295   3.9243
 13.261   4.0067
 13.227   4.0994
 13.193   4.2127
 13.160   4.4393
 13.126   4.6350
 13.093   4.5732
 13.060   4.6453
 13.027   4.8307
 12.995   5.0161
 12.962   5.1500
 12.930   5.3354
 12.898   5.6856
 12.866   6.3139
 12.834   6.9422
 12.802   7.3851
 12.771   7.4778
 12.739   7.2924
 12.708   6.8289
 12.677   6.1594
 12.646   5.5105
 12.616   5.0985
 12.585   5.0161
 12.554   5.2942
 12.524   5.6753
 12.494   6.0255
 12.464   6.0564
 12.434   5.8813
 12.404   5.3663
 12.375   4.4496
 12.345   3.2960
 12.316   2.4308
 12.287   1.9055
 12.258   1.6274
 12.229   1.5656
 12.200   1.7098
 12.171   1.8437
 12.143   1.9570
 12.115   2.0497
 12.086   2.2042
 12.058   2.3278
 12.030   2.5544
 12.002   2.6883
 11.975   2.6677
 11.947   2.6471
 11.920   2.7192
 11.892   2.8325
 11.865   2.9252
 11.838   3.0179
 11.811   3.0694
 11.784   3.1312
 11.757   3.2136
 11.731   3.2754
 11.704   3.3887
 11.678   3.4917
 11.652   3.5947
 11.626   3.5947
 11.600   3.6462
 11.574   3.6462
 11.548   3.6256
 11.522   3.6771
 11.497   3.8110
 11.471   3.7904
 11.446   3.8110
 11.421   3.8934
 11.396   3.9964
 11.371   4.0376
 11.346   4.0891
 11.321   4.1097
 11.297   4.0891
 11.272   4.0994
 11.248   4.2230
 11.223   4.2848
 11.199   4.3672
 11.175   4.3775
 11.151   4.4702
 11.127   4.4805
 11.103   4.4290
 11.079   4.4393
 11.056   4.5938
 11.032   4.6453
 11.009   4.7071
 10.985   4.7483
 10.962   4.8616
 10.939   4.9749
 10.916   5.0058
 10.893   4.9543
 10.870   5.0058
 10.848   5.0573
 10.825   5.0676
 10.802   5.0985
 10.780   5.1088
 10.758   5.1191
 10.735   5.2015
 10.713   5.2633
 10.691   5.3663
 10.669   5.4075
 10.647   5.4281
 10.625   5.4590
 10.604   5.5826
 10.582   5.5620
 10.560   5.6238
 10.539   5.7062
 10.518   5.7783
 10.496   5.8298
 10.475   5.9431
 10.454   5.9431
 10.433   5.9946
 10.412   6.0564
 10.391   6.1491
 10.370   6.2315
 10.350   6.2933
 10.329   6.3551
 10.309   6.5302
 10.288   6.6126
 10.268   6.7465
 10.247   6.8495
 10.227   6.9422
 10.207   7.0349
 10.187   7.1688
 10.167   7.3130
 10.147   7.3954
 10.127   7.4778
 10.108   7.6632
 10.088   7.7868
 10.068   7.9825
 10.049   8.0855
 10.029   8.1885
 10.010   8.2915
  9.991   8.3121
  9.972   8.3945
  9.952   8.5490
  9.933   8.7035
  9.914   8.8374
  9.895   9.0537
  9.877   9.3215
  9.858   9.3730
  9.839   9.3421
  9.821   9.3215
  9.802   9.4142
  9.783   9.5172
  9.765   9.6305
  9.747   9.8983
  9.728  10.1970
  9.710  10.4236
  9.692  10.7738
  9.674  11.1652
  9.656  11.5051
  9.638  11.7626
  9.620  11.9274
  9.602  12.0922
  9.585  12.3703
  9.567  12.5042
  9.549  12.6587
  9.532  12.9986
  9.514  13.4106
  9.497  13.8226
  9.479  14.3891
  9.462  15.0380
  9.445  15.8105
  9.428  16.6654
  9.411  17.7160
  9.394  19.0344
  9.377  20.6515
  9.360  22.3716
  9.343  23.9475
  9.326  25.3483
  9.309  26.4813
  9.293  27.2126
  9.276  27.7379
  9.259  28.0469
  9.243  28.2117
  9.226  28.2323
  9.210  28.2941
  9.194  28.3353
  9.178  28.2838
  9.161  28.2941
  9.145  28.2014
  9.129  28.0675
  9.113  28.0469
  9.097  27.9851
  9.081  27.7997
  9.065  27.5319
  9.049  27.3568
  9.034  27.2023
  9.018  27.0169
  9.002  26.8315
  8.987  26.6770
  8.971  26.3474
  8.956  26.0693
  8.940  25.8942
  8.925  25.6676
  8.909  25.4101
  8.894  25.2659
  8.879  24.9981
  8.864  24.6582
  8.849  24.4007
  8.834  24.2359
  8.819  23.9578
  8.804  23.6591
  8.789  23.3707
  8.774  23.1029
  8.759  22.9175
  8.744  22.7733
  8.730  22.6600
  8.715  22.4746
  8.700  22.1656
  8.686  21.7639
  8.671  21.2180
  8.657  20.3322
  8.642  18.9726
  8.628  17.3967
  8.614  16.6757
  8.599  17.4894
  8.585  19.1786
  8.571  20.7854
  8.557  21.9287
  8.543  22.7939
  8.529  23.3707
  8.515  23.8033
  8.501  24.0917
  8.487  24.4625
  8.473  24.7612
  8.459  24.9363
  8.445  25.1423
  8.431  25.3998
  8.418  25.5749
  8.404  25.7809
  8.391  26.0281
  8.377  26.3062
  8.363  26.5843
  8.350  26.8933
  8.337  27.2023
  8.323  27.5216
  8.310  27.8718
  8.297  28.2941
  8.283  28.6649
  8.270  28.9842
  8.257  29.2005
  8.244  29.3550
  8.231  29.4683
  8.218  29.4992
  8.205  29.3859
  8.192  29.0666
  8.179  28.5207
  8.166  27.9130
  8.153  27.1405
  8.140  26.0075
  8.128  24.6067
  8.115  23.1338
  8.102  21.6403
  8.090  20.3013
  8.077  19.0138
  8.064  17.7675
  8.052  16.5624
  8.039  15.4912
  8.027  14.4303
  8.015  13.4312
  8.002  12.6278
  7.990  11.9274
  7.978  11.1343
  7.965  10.3618
  7.953   9.5996
  7.941   8.8477
  7.929   8.0855
  7.917   7.3748
  7.905   6.7053
  7.893   6.2006
  7.881   5.6856
  7.869   5.2015
  7.857   4.7689
  7.845   4.4187
  7.833   4.0994
  7.821   3.8007
  7.809   3.5226
  7.798   3.3063
  7.786   3.1621
  7.774   3.0488
  7.763   2.8531
  7.751   2.7192
  7.739   2.5956
  7.728   2.4514
  7.716   2.3278
  7.705   2.2351
  7.694   2.0806
  7.682   1.9879
  7.671   1.8849
  7.659   1.7407
  7.648   1.6377
  7.637   1.5656
  7.626   1.5244
  7.614   1.4626
  7.603   1.4317
  7.592   1.4420
  7.581   1.3390
  7.570   1.2772
  7.559   1.2669
  7.548   1.2669
  7.537   1.2463
  7.526   1.2360
  7.515   1.1639
  7.504   1.1124
  7.493   1.1124
  7.483   1.1124
  7.472   1.0712
  7.461   1.0197
  7.450   0.9888
  7.440   1.0094
  7.429   0.9476
  7.418   0.8858
  7.408   0.9167
  7.397   1.0094
  7.387   1.0094
  7.376   0.9785
  7.366   0.9476
  7.355   0.9785
  7.345   0.9682
  7.334   0.8961
  7.324   0.8240
  7.314   0.8755
  7.303   0.9373
  7.293   0.9270
  7.283   0.9064
  7.273   0.9373
  7.263   0.9579
  7.252   0.9579
  7.242   0.9167
  7.232   0.9579
  7.222   0.9991
  7.212   1.0094
  7.202   0.9991
  7.192   1.0712
  7.182   1.1227
  7.172   1.1433
  7.162   1.0918
  7.152   1.1021
  7.143   1.0609
  7.133   0.9682
  7.123   0.9579
  7.113   1.0094
  7.103   1.0300
  7.094   1.0609
  7.084   1.0609
  7.074   1.0918
  7.065   1.1639
  7.055   1.1536
  7.046   1.1227
  7.036   1.1433
  7.026   1.1330
  7.017   1.1742
  7.007   1.1845
  6.998   1.1639
  6.989   1.0918
  6.979   1.0712
  6.970   1.1124
  6.960   1.1330
  6.951   1.1021
  6.942   1.1124
  6.932   1.1742
  6.923   1.2669
  6.914   1.2051
  6.905   1.1433
  6.896   1.1536
  6.886   1.2154
  6.877   1.2051
  6.868   1.1536
  6.859   1.1021
  6.850   1.1639
  6.841   1.2154
  6.832   1.1639
  6.823   1.1536
  6.814   1.1948
  6.805   1.2154
  6.796   1.2463
  6.787   1.2463
  6.778   1.2360
  6.770   1.1948
  6.761   1.1948
  6.752   1.2154
  6.743   1.1742
  6.734   1.1433
  6.726   1.1948
  6.717   1.1536
  6.708   1.1536
  6.700   1.2154
  6.691   1.2154
  6.682   1.1433
  6.674   1.1948
  6.665   1.2360
  6.657   1.2463
  6.648   1.2669
  6.640   1.3287
  6.631   1.3493
  6.623   1.2669
  6.614   1.1948
  6.606   1.2978
  6.597   1.3081
  6.589   1.2669
  6.581   1.2875
  6.572   1.3081
  6.564   1.2566
  6.556   1.2257
  6.547   1.2463
  6.539   1.2875
  6.531   1.3699
  6.523   1.3802
  6.514   1.3184
  6.506   1.3081
  6.498   1.3596
  6.490   1.4523
  6.482   1.5038
  6.474   1.5244
  6.466   1.5450
  6.458   1.5862
  6.450   1.5965
  6.442   1.5656
  6.434   1.5656
  6.426   1.6274
  6.418   1.6171
  6.410   1.5656
  6.402   1.5553
  6.394   1.5553
  6.386   1.5656
  6.378   1.5656
  6.370   1.5244
  6.363   1.5244
  6.355   1.5038
  6.347   1.5347
  6.339   1.5553
  6.332   1.5450
  6.324   1.4832
  6.316   1.4626
  6.308   1.4317
  6.301   1.4111
  6.293   1.3905
  6.286   1.4008
  6.278   1.3905
  6.270   1.3699
  6.263   1.3596
  6.255   1.3802
  6.248   1.3699
  6.240   1.3493
  6.233   1.3596
  6.225   1.3493
  6.218   1.2875
  6.210   1.3081
  6.203   1.2978
  6.195   1.3184
  6.188   1.3081
  6.181   1.3287
  6.173   1.3184
  6.166   1.3493
  6.159   1.4008
  6.151   1.4935
  6.144   1.5244
  6.137   1.5141
  6.130   1.5141
  6.122   1.5141
  6.115   1.5244
  6.108   1.5759
  6.101   1.6377
  6.094   1.6789
  6.086   1.6892
  6.079   1.6274
  6.072   1.6068
  6.065   1.6789
  6.058   1.6583
  6.051   1.6274
  6.044   1.6171
  6.037   1.6583
  6.030   1.6995
  6.023   1.6892
  6.016   1.6583
  6.009   1.6995
  6.002   1.7201
  5.995   1.6892
  5.988   1.6892
  5.981   1.7098
  5.974   1.6686
  5.967   1.6583
  5.960   1.6789
  5.954   1.6583
  5.947   1.5965
  5.940   1.6171
  5.933   1.6171
  5.926   1.6480
  5.920   1.6789
  5.913   1.6789
  5.906   1.6686
  5.899   1.7304
  5.893   1.7304
  5.886   1.7098
  5.879   1.7201
  5.873   1.7304
  5.866   1.7304
  5.859   1.7922
  5.853   1.8849
  5.846   1.9467
  5.840   1.9158
  5.833   1.9364
  5.827   1.9467
  5.820   1.9879
  5.813   1.9982
  5.807   1.9879
  5.800   1.9982
  5.794   2.0600
  5.788   2.1218
  5.781   2.1733
  5.775   2.1218
  5.768   2.0703
  5.762   2.0909
  5.755   2.1115
  5.749   2.0909
  5.743   2.1012
  5.736   2.1115
  5.730   2.1733
  5.724   2.1939
  5.717   2.2145
  5.711   2.2145
  5.705   2.2145
  5.698   2.1939
  5.692   2.1836
  5.686   2.2042
  5.680   2.2454
  5.674   2.2042
  5.667   2.1218
  5.661   2.1115
  5.655   2.0909
  5.649   2.1012
  5.643   2.0600
  5.637   2.0394
  5.630   1.9879
  5.624   1.9261
  5.618   1.9158
  5.612   1.9364
  5.606   1.9570
  5.600   1.9055
  5.594   1.9570
  5.588   1.9879
  5.582   1.9261
  5.576   1.8849
  5.570   1.8952
  5.564   1.8952
  5.558   1.9261
  5.552   1.9364
  5.546   1.9467
  5.540   1.9467
  5.534   1.9776
  5.528   2.0188
  5.523   2.0394
  5.517   2.0806
  5.511   2.1527
  5.505   2.1630
  5.499   2.1630
  5.493   2.2145
  5.487   2.2866
  5.482   2.2660
  5.476   2.2557
  5.470   2.2763
  5.464   2.3381
  5.459   2.3587
  5.453   2.3793
  5.447   2.3690
  5.441   2.3896
  5.436   2.3484
  5.430   2.2969
  5.424   2.2866
  5.419   2.3278
  5.413   2.2969
  5.407   2.2557
  5.402   2.2248
  5.396   2.1733
  5.390   2.0806
  5.385   2.0394
  5.379   2.0188
  5.374   1.9776
  5.368   1.9570
  5.363   1.9570
  5.357   1.8849
  5.352   1.9055
  5.346   1.9158
  5.341   1.9158
  5.335   1.9261
  5.330   1.9055
  5.324   1.9364
  5.319   1.9776
  5.313   1.9467
  5.308   1.9158
  5.302   1.9158
  5.297   1.9364
  5.291   1.9673
  5.286   1.9879
  5.281   1.9982
  5.275   2.0394
  5.270   2.0291
  5.265   2.0291
  5.259   2.0291
  5.254   2.0806
  5.249   2.1115
  5.243   2.1836
  5.238   2.2660
  5.233   2.3278
  5.227   2.3587
  5.222   2.4411
  5.217   2.5441
  5.212   2.5956
  5.206   2.5853
  5.201   2.6059
  5.196   2.6162
  5.191   2.6368
  5.186   2.6368
  5.180   2.6574
  5.175   2.6677
  5.170   2.6780
  5.165   2.6162
  5.160   2.5956
  5.155   2.6162
  5.150   2.6780
  5.145   2.6986
  5.139   2.6780
  5.134   2.6883
  5.129   2.6780
  5.124   2.6574
  5.119   2.6677
  5.114   2.6883
  5.109   2.6780
  5.104   2.6677
  5.099   2.6780
  5.094   2.6883
  5.089   2.6780
  5.084   2.5956
  5.079   2.5750
  5.074   2.5853
  5.069   2.5956
  5.064   2.5853
  5.059   2.5853
  5.054   2.5853
  5.049   2.6368
  5.044   2.6574
  5.040   2.6471
  5.035   2.6162
  5.030   2.6059
  5.025   2.5647
  5.020   2.5750
  5.015   2.5956
  5.010   2.6162
  5.005   2.6265
  5.001   2.5853
  4.996   2.6368
  4.991   2.7295
  4.986   2.6883
  4.981   2.6265
  4.977   2.6986
  4.972   2.8222
  4.967   2.8840
  4.962   2.9561
  4.958   2.9767
  4.953   3.0179
  4.948   3.0797
  4.943   3.1312
  4.939   3.1312
  4.934   3.1621
  4.929   3.2239
  4.925   3.2548
  4.920   3.2960
  4.915   3.3578
  4.911   3.3990
  4.906   3.4814
  4.901   3.6359
  4.897   3.8007
  4.892   3.9243
  4.888   4.1097
  4.883   4.2333
  4.878   4.3157
  4.874   4.3672
  4.869   4.4908
  4.865   4.6041
  4.860   4.6762
  4.856   4.7174
  4.851   4.8513
  4.846   4.9543
  4.842   5.0264
  4.837   5.0264
  4.833   5.0264
  4.828   5.1191
  4.824   5.2324
  4.819   5.2530
  4.815   5.2221
  4.810   5.2221
  4.806   5.2839
  4.802   5.3148
  4.797   5.3045
  4.793   5.3354
  4.788   5.3457
  4.784   5.3045
  4.779   5.2942
  4.775   5.3251
  4.771   5.3560
  4.766   5.4075
  4.762   5.5208
  4.758   5.5208
  4.753   5.5105
  4.749   5.5723
  4.744   5.6444
  4.740   5.7165
  4.736   5.7783
  4.731   5.7268
  4.727   5.7165
  4.723   5.7577
  4.719   5.7989
  4.714   5.7783
  4.710   5.7371
  4.706   5.7577
  4.701   5.7474
  4.697   5.7165
  4.693   5.7474
  4.689   5.7783
  4.684   5.7783
  4.680   5.6959
  4.676   5.6547
  4.672   5.7165
  4.668   5.8195
  4.663   5.8916
  4.659   6.0049
  4.655   6.0461
  4.651   6.0770
  4.647   6.1079
  4.643   6.1800
  4.638   6.2521
  4.634   6.2933
  4.630   6.3757
  4.626   6.5405
  4.622   6.6332
  4.618   6.5920
  4.614   6.5817
  4.610   6.7053
  4.605   6.8083
  4.601   6.7980
  4.597   6.7877
  4.593   6.8804
  4.589   6.9834
  4.585   7.0040
  4.581   7.0143
  4.577   7.0761
  4.573   7.0967
  4.569   7.0864
  4.565   7.1276
  4.561   7.2100
  4.557   7.1997
  4.553   7.1791
  4.549   7.1379
  4.545   7.1791
  4.541   7.2512
  4.537   7.2100
  4.533   7.1379
  4.529   7.1276
  4.525   7.0864
  4.521   6.9834
  4.517   6.9319
  4.513   6.9010
  4.509   6.7877
  4.505   6.6847
  4.502   6.6538
  4.498   6.6332
  4.494   6.6126
  4.490   6.6023
  4.486   6.5611
  4.482   6.5817
  4.478   6.6229
  4.474   6.6229
  4.470   6.5817
  4.467   6.5405
  4.463   6.5096
  4.459   6.5302
  4.455   6.5817
  4.451   6.7156
  4.447   6.8083
  4.444   6.8495
  4.440   6.9628
  4.436   6.9834
  4.432   6.9628
  4.428   7.0864
  4.425   7.1585
  4.421   7.2100
  4.417   7.2718
  4.413   7.3130
  4.410   7.3748
  4.406   7.4160
  4.402   7.5087
  4.398   7.6220
  4.395   7.7147
  4.391   7.8280
  4.387   7.8589
  4.384   7.9001
  4.380   7.9516
  4.376   8.1061
  4.372   8.2400
  4.369   8.3018
  4.365   8.3842
  4.361   8.5181
  4.358   8.6417
  4.354   8.6932
  4.350   8.6829
  4.347   8.7035
  4.343   8.7962
  4.340   8.8683
  4.336   8.9095
  4.332   8.9816
  4.329   9.0640
  4.325   9.1567
  4.321   9.1567
  4.318   9.1052
  4.314   9.1258
  4.311   9.1979
  4.307   9.1773
  4.304   9.2185
  4.300   9.2494
  4.296   9.1670
  4.293   9.1258
  4.289   9.2597
  4.286   9.3627
  4.282   9.4245
  4.279   9.4348
  4.275   9.4451
  4.272   9.5069
  4.268   9.4966
  4.265   9.5378
  4.261   9.5790
  4.258   9.5893
  4.254   9.6511
  4.251   9.7232
  4.247   9.7747
  4.244   9.7953
  4.240   9.8262
  4.237   9.8159
  4.233   9.7644
  4.230   9.7438
  4.226   9.8159
  4.223   9.8159
  4.219   9.7644
  4.216   9.7335
  4.213   9.8056
  4.209   9.8777
  4.206   9.8880
  4.202   9.8262
  4.199   9.8159
  4.196   9.7850
  4.192   9.8365
  4.189   9.8983
  4.185   9.9086
  4.182   9.8983
  4.179   9.8983
  4.175   9.9189
  4.172   9.9807
  4.169  10.0116
  4.165  10.0322
  4.162  10.1249
  4.159  10.1764
  4.155  10.1661
  4.152  10.1661
  4.149  10.1867
  4.145  10.2279
  4.142  10.1867
  4.139  10.1455
  4.135  10.2279
  4.132  10.3000
  4.129  10.3309
  4.126  10.3927
  4.122  10.3721
  4.119  10.3721
  4.116  10.4545
  4.112  10.4957
  4.109  10.4957
  4.106  10.5472
  4.103  10.5060
  4.099  10.5472
  4.096  10.6605
  4.093  10.7120
  4.090  10.7017
  4.086  10.6502
  4.083  10.6502
  4.080  10.7326
  4.077  10.7738
  4.074  10.8150
  4.070  10.7635
  4.067  10.7532
  4.064  10.7326
  4.061  10.7017
  4.058  10.7326
  4.055  10.7326
  4.051  10.8047
  4.048  10.8356
  4.045  10.7738
  4.042  10.7841
  4.039  10.8253
  4.036  10.8459
  4.032  10.7944
  4.029  10.7944
  4.026  10.7326
  4.023  10.6399
  4.020  10.7120
  4.017  10.8047
  4.014  10.7326
  4.011  10.7944
  4.008  10.8562
  4.004  10.8665
  4.001  10.7841
  3.998  10.7120
  3.995  10.7326
  3.992  10.8150
  3.989  10.8459
  3.986  10.8047
  3.983  10.8253
  3.980  10.8665
  3.977  10.8871
  3.974  10.9489
  3.971  10.9283
  3.968  10.9489
  3.965  10.9798
  3.962  11.0313
  3.959  10.9695
  3.956  10.9798
  3.953  11.0313
  3.950  11.0210
  3.947  10.9695
  3.944  10.9386
  3.941  11.0416
  3.938  11.1137
  3.935  11.2064
  3.932  11.2682
  3.929  11.1549
  3.926  11.1549
  3.923  11.1549
  3.920  11.1652
  3.917  11.2064
  3.914  11.1549
  3.911  11.1343
  3.908  11.1549
  3.905  11.1137
  3.902  11.1755
  3.899  11.1858
  3.896  11.1240
  3.893  11.1137
  3.890  11.0931
  3.887  10.9901
  3.884  11.0004
  3.882  11.0519
  3.879  11.0828
  3.876  11.1240
  3.873  11.1652
  3.870  11.1549
  3.867  11.1343
  3.864  11.1446
  3.861  11.1137
  3.858  11.0313
  3.856  11.0519
  3.853  11.0416
  3.850  11.0828
  3.847  11.1034
  3.844  11.0622
  3.841  11.0828
  3.838  11.1240
  3.836  11.1755
  3.833  11.2270
  3.830  11.2579
  3.827  11.1549
  3.824  11.0828
  3.822  11.1446
  3.819  11.1034
  3.816  11.1240
  3.813  11.1961
  3.810  11.1858
  3.807  11.1137
  3.805  11.1137
  3.802  11.1446
  3.799  11.1652
  3.796  11.1446
  3.794  11.1240
  3.791  11.1343
  3.788  11.1858
  3.785  11.2167
  3.782  11.1652
  3.780  11.1446
  3.777  11.1755
  3.774  11.1755
  3.771  11.1137
  3.769  11.0416
  3.766  11.0931
  3.763  11.0313
  3.761  10.9798
  3.758  10.9798
  3.755  10.9901
  3.752  11.0416
  3.750  10.9798
  3.747  10.8974
  3.744  10.8768
  3.742  10.8665
  3.739  10.8665
  3.736  10.8562
  3.733  10.8768
  3.731  10.9180
  3.728  10.9283
  3.725  10.8356
  3.723  10.8665
  3.720  10.9077
  3.717  10.8665
  3.715  10.8253
  3.712  10.9180
  3.709  10.9798
  3.707  10.9798
  3.704  10.8974
  3.702  10.9386
  3.699  10.9283
  3.696  10.8665
  3.694  10.9180
  3.691  10.9592
  3.688  10.8768
  3.686  10.8768
  3.683  10.9283
  3.680  10.9180
  3.678  10.8768
  3.675  10.9386
  3.673  11.0416
  3.670  11.1137
  3.667  11.0828
  3.665  11.0210
  3.662  10.9386
  3.660  11.0210
  3.657  11.0931
  3.655  11.0519
  3.652  10.9592
  3.649  10.9592
  3.647  10.9489
  3.644  10.9901
  3.642  11.0313
  3.639  10.9592
  3.637  10.8562
  3.634  10.8253
  3.632  10.8665
  3.629  10.9901
  3.626  11.0107
  3.624  10.9695
  3.621  10.8356
  3.619  10.8562
  3.616  10.8562
  3.614  10.8047
  3.611  10.7326
  3.609  10.6502
  3.606  10.6708
  3.604  10.7429
  3.601  10.7326
  3.599  10.6811
  3.596  10.6399
  3.594  10.6605
  3.591  10.6811
  3.589  10.7120
  3.586  10.7738
  3.584  10.6605
  3.581  10.5678
  3.579  10.5884
  3.576  10.5472
  3.574  10.5575
  3.571  10.6399
  3.569  10.6708
  3.567  10.6296
  3.564  10.5163
  3.562  10.4030
  3.559  10.3927
  3.557  10.3309
  3.554  10.3103
  3.552  10.3824
  3.549  10.3618
  3.547  10.3515
  3.545  10.3618
  3.542  10.2279
  3.540  10.2176
  3.537  10.2279
  3.535  10.2382
  3.533  10.2279
  3.530  10.1764
  3.528  10.2279
  3.525  10.2176
  3.523  10.1249
  3.521  10.1558
  3.518  10.1867
  3.516  10.1764
  3.513  10.1455
  3.511  10.0219
  3.509   9.9807
  3.506  10.0013
  3.504   9.8983
  3.502   9.8880
  3.499   9.9086
  3.497   9.8365
  3.494   9.7541
  3.492   9.8880
  3.490   9.9498
  3.487   9.8880
  3.485   9.7232
  3.483   9.7232
  3.480   9.7438
  3.478   9.7644
  3.476   9.7953
  3.473   9.7850
  3.471   9.6408
  3.469   9.6408
  3.466   9.6923
  3.464   9.7026
  3.462   9.6099
  3.460   9.5790
  3.457   9.6511
  3.455   9.6820
  3.453   9.6511
  3.450   9.6408
  3.448   9.5069
  3.446   9.5069
  3.443   9.5893
  3.441   9.5893
  3.439   9.4657
  3.437   9.3421
  3.434   9.3009
  3.432   9.3833
  3.430   9.4451
  3.428   9.3009
  3.425   9.1567
  3.423   9.1876
  3.421   9.1773
  3.418   9.1361
  3.416   9.0537
  3.414   9.0743
  3.412   9.0640
  3.409   9.0125
  3.407   8.8889
  3.405   8.8786
  3.403   9.0331
  3.401   9.0537
  3.398   8.9095
  3.396   8.9507
  3.394   9.0228
  3.392   8.9816
  3.389   8.9610
  3.387   8.9713
  3.385   8.8477
  3.383   8.7859
  3.381   8.7447
  3.378   8.7962
  3.376   8.7859
  3.374   8.7138
  3.372   8.6829
  3.370   8.7138
  3.367   8.7653
  3.365   8.8065
  3.363   8.7241
  3.361   8.6623
  3.359   8.6417
  3.357   8.6726
  3.354   8.7241
  3.352   8.7241
  3.350   8.6726
  3.348   8.6108
  3.346   8.6314
  3.344   8.7241
  3.341   8.5696
  3.339   8.4048
  3.337   8.4460
  3.335   8.6417
  3.333   8.6314
  3.331   8.5799
  3.329   8.4666
  3.326   8.4048
  3.324   8.4048
  3.322   8.4151
  3.320   8.3945
  3.318   8.3842
  3.316   8.4563
  3.314   8.3636
  3.312   8.3533
  3.309   8.3636
  3.307   8.3224
  3.305   8.4254
  3.303   8.3121
  3.301   8.1679
  3.299   8.1576
  3.297   8.0855
  3.295   7.9722
  3.293   8.0134
  3.291   8.1267
  3.288   8.1782
  3.286   8.2194
  3.284   8.2400
  3.282   8.0649
  3.280   7.8795
  3.278   7.9104
  3.276   7.9619
  3.274   7.9104
  3.272   7.9619
  3.270   8.0031
  3.268   7.8589
  3.266   7.7250
  3.264   7.7250
  3.262   7.8280
  3.259   7.8280
  3.257   7.8692
  3.255   7.9310
  3.253   7.8074
  3.251   7.7250
  3.249   7.6838
  3.247   7.7662
  3.245   7.7044
  3.243   7.6220
  3.241   7.6323
  3.239   7.6323
  3.237   7.6632
  3.235   7.6941
  3.233   7.6220
  3.231   7.6323
  3.229   7.6117
  3.227   7.5911
  3.225   7.5808
  3.223   7.5293
  3.221   7.5499
  3.219   7.5911
  3.217   7.5087
  3.215   7.4778
  3.213   7.3851
  3.211   7.3439
  3.209   7.4366
  3.207   7.4572
  3.205   7.4469
  3.203   7.4160
  3.201   7.3439
  3.199   7.4160
  3.197   7.4160
  3.195   7.2821
  3.193   7.1379
  3.191   7.0967
  3.189   7.1791
  3.187   7.2821
  3.185   7.2821
  3.183   7.2203
  3.182   7.2306
  3.180   7.1585
  3.178   7.0246
  3.176   6.9937
  3.174   7.0555
  3.172   7.1379
  3.170   7.1894
  3.168   7.0246
  3.166   6.9216
  3.164   6.9937
  3.162   6.9422
  3.160   6.9525
  3.158   6.9834
  3.156   6.9834
  3.154   6.9113
  3.152   6.8495
  3.151   6.8907
  3.149   6.8907
  3.147   6.8186
  3.145   6.8804
  3.143   6.8289
  3.141   6.8392
  3.139   6.8289
  3.137   6.7568
  3.135   6.7362
  3.133   6.7671
  3.132   6.9010
  3.130   6.9113
  3.128   6.8392
  3.126   6.7877
  3.124   6.6950
  3.122   6.5714
  3.120   6.4890
  3.118   6.5508
  3.117   6.6744
  3.115   6.7568
  3.113   6.6847
  3.111   6.6641
  3.109   6.5508
  3.107   6.5096
  3.105   6.4993
  3.103   6.4478
  3.102   6.2830
  3.100   6.3551
  3.098   6.4272
  3.096   6.4169
  3.094   6.4787
  3.092   6.4684
  3.091   6.4478
  3.089   6.4272
  3.087   6.4272
  3.085   6.4581
  3.083   6.4890
  3.081   6.5096
  3.079   6.3963
  3.078   6.4169
  3.076   6.3963
  3.074   6.2933
  3.072   6.3757
  3.070   6.4272
  3.069   6.3242
  3.067   6.2830
  3.065   6.2006
  3.063   6.1594
  3.061   6.2315
  3.060   6.3860
  3.058   6.2830
  3.056   6.1697
  3.054   6.1697
  3.052   6.2624
  3.051   6.2212
  3.049   6.2109
  3.047   6.3139
  3.045   6.2933
  3.043   6.2727
  3.042   6.3345
  3.040   6.3345
  3.038   6.3036
  3.036   6.2006
  3.034   6.1079
  3.033   6.0255
  3.031   6.0564
  3.029   6.0976
  3.027   6.0976
  3.026   6.1491
  3.024   6.2521
  3.022   6.1800
  3.020   6.1388
  3.019   6.1285
  3.017   6.0770
  3.015   6.0049
  3.013   6.1388
  3.012   6.0667
  3.010   5.9019
  3.008   6.0461
  3.006   6.0976
  3.005   6.0564
  3.003   6.0667
  3.001   6.2418
  2.999   6.3757
  2.998   6.2830
  2.996   6.1079
  2.994   6.0049
  2.992   5.9843
  2.991   6.0049
  2.989   6.1285
  2.987   6.0873
  2.986   5.9328
  2.984   5.8607
  2.982   5.9740
  2.980   6.1285
  2.979   6.2109
  2.977   6.0976
  2.975   6.0461
  2.974   5.9740
  2.972   5.8092
  2.970   5.6547
  2.968   5.7886
  2.967   6.0049
  2.965   5.8916
  2.963   5.9431
  2.962   6.0770
  2.960   6.0358
  2.958   6.0049
  2.957   5.8710
  2.955   5.7268
  2.953   5.7062
  2.952   5.8916
  2.950   6.0049
  2.948   5.9740
  2.947   6.0255
  2.945   5.9431
  2.943   5.7680
  2.942   5.7989
  2.940   6.0152
  2.938   6.1388
  2.937   6.1182
  2.935   5.9946
  2.933   5.9843
  2.932   5.9946
  2.930   6.0049
  2.928   6.0461
  2.927   6.0358
  2.925   5.9843
  2.923   6.0358
  2.922   6.0358
  2.920   6.0461
  2.918   6.0770
  2.917   6.0667
  2.915   6.0873
  2.913   5.9946
  2.912   5.9637
  2.910   5.9946
  2.909   6.0976
  2.907   5.9843
  2.905   5.8813
  2.904   5.9843
  2.902   6.0461
  2.900   6.1285
  2.899   6.0873
  2.897   5.9843
  2.896   6.0976
  2.894   6.1285
  2.892   6.0358
  2.891   6.1388
  2.889   6.1903
  2.887   6.2624
  2.886   6.2624
  2.884   6.0976
  2.883   6.1594
  2.881   6.1800
  2.879   5.9843
  2.878   5.8401
  2.876   5.9534
  2.875   6.1182
  2.873   6.0873
  2.871   6.2521
  2.870   6.4169
  2.868   6.3963
  2.867   6.3242
  2.865   6.1491
  2.864   6.1491
  2.862   6.2933
  2.860   6.2624
  2.859   6.2418
  2.857   6.2933
  2.856   6.3654
  2.854   6.4684
  2.853   6.3860
  2.851   6.3345
  2.849   6.3036
  2.848   6.2418
  2.846   6.3757
  2.845   6.4684
  2.843   6.5611
  2.842   6.6538
  2.840   6.4169
  2.838   6.2109
  2.837   6.4272
  2.835   6.6023
  2.834   6.4375
  2.832   6.2727
  2.831   6.3036
  2.829   6.3963
  2.828   6.3551
  2.826   6.3448
  2.825   6.2727
  2.823   6.2109
  2.821   6.2933
  2.820   6.2933
  2.818   6.0358
  2.817   5.8813
  2.815   5.8710
  2.814   5.7268
  2.812   5.7474
  2.811   6.1697
  2.809   6.0564
  2.808   5.8401
  2.806   5.7268
  2.805   5.5826
  2.803   5.5105
  2.802   5.7474
  2.800   5.8401
  2.799   5.6753
  2.797   5.4693
  2.796   5.3869
  2.794   5.4075
  2.793   5.3354
  2.791   5.4384
  2.790   5.5002
  2.788   5.5002
  2.787   5.4487
  2.785   5.2736
  2.784   5.1191
  2.782   5.2118
  2.781   5.3663
  2.779   5.0676
  2.778   4.9337
  2.776   5.0676
  2.775   5.1397
  2.773   5.1294
  2.772   4.9646
  2.770   4.8822
  2.769   4.9852
  2.767   4.9337
  2.766   4.8410
  2.764   4.9131
  2.763   4.8925
  2.761   4.9337
  2.760   5.0058
  2.758   5.0676
  2.757   5.2118
  2.756   5.2942
  2.754   5.3766
  2.753   5.2427
  2.751   5.2427
  2.750   5.1397
  2.748   5.3045
  2.747   5.5826
  2.745   5.6032
  2.744   5.6856
  2.742   5.7886
  2.741   5.7783
  2.740   5.6650
  2.738   5.5105
  2.737   5.7062
  2.735   6.0976
  2.734   6.3757
  2.732   6.3448
  2.731   6.1594
  2.729   6.4993
  2.728   6.9216
  2.727   6.8598
  2.725   6.7877
  2.724   6.7774
  2.722   6.7259
  2.721   6.8289
  2.719   7.1379
  2.718   7.4160
  2.717   7.2821
  2.715   7.1688
  2.714   7.0967
  2.712   7.0555
  2.711   7.0658
  2.709   6.7877
  2.708   6.5920
  2.707   6.2624
  2.705   6.0770
  2.704   6.4478
  2.702   7.0967
  2.701   7.4572
  2.700   7.6426
  2.698   7.7250
  2.697   7.7868
  2.695   8.0958
  2.694   8.4975
  2.693   8.9301
  2.691   9.3627
  2.690   9.7541
  2.688  10.0528
  2.687  10.3000
  2.686  10.7532
  2.684  11.0519
  2.683  11.1858
  2.681  11.4227
  2.680  11.4742
  2.679  11.3918
  2.677  11.3609
  2.676  11.7317
  2.675  11.9583
  2.673  12.0407
  2.672  12.1643
  2.670  12.2364
  2.669  12.3600
  2.668  12.2982
  2.666  12.4527
  2.665  12.6896
  2.664  12.7205
  2.662  12.6381
  2.661  12.5351
  2.659  12.7205
  2.658  12.8956
  2.657  13.1016
  2.655  13.1222
  2.654  13.1737
  2.653  13.0295
  2.651  12.7823
  2.650  12.7411
  2.649  12.7926
  2.647  13.2561
  2.646  13.4930
  2.645  13.2458
  2.643  13.3282
  2.642  13.4930
  2.640  13.5136
  2.639  13.2252
  2.638  13.2355
  2.636  13.3385
  2.635  13.3694
  2.634  13.3694
  2.632  13.6269
  2.631  13.6372
  2.630  13.4003
  2.628  13.3385
  2.627  13.4312
  2.626  13.4724
  2.624  13.4003
  2.623  13.3694
  2.622  13.4415
  2.620  13.5857
  2.619  13.6475
  2.618  13.5754
  2.617  13.3591
  2.615  13.3488
  2.614  13.3694
  2.613  13.4106
  2.611  13.4415
  2.610  13.3488
  2.609  13.2870
  2.607  13.5136
  2.606  13.6784
  2.605  13.2458
  2.603  13.1840
  2.602  13.4621
  2.601  13.7917
  2.599  13.8329
  2.598  13.7196
  2.597  13.4827
  2.596  13.1428
  2.594  13.3694
  2.593  13.6475
  2.592  13.6166
  2.590  13.4518
  2.589  13.3797
  2.588  13.4518
  2.586  13.5857
  2.585  13.6372
  2.584  13.7196
  2.583  13.5445
  2.581  13.4312
  2.580  13.6990
  2.579  13.7505
  2.577  13.7917
  2.576  13.9153
  2.575  13.9668
  2.574  13.8535
  2.572  13.6784
  2.571  13.5651
  2.570  13.9050
  2.569  14.0492
  2.567  13.7917
  2.566  13.7402
  2.565  13.7402
  2.563  13.7608
  2.562  13.6578
  2.561  13.4518
  2.560  13.5342
  2.558  13.8947
  2.557  13.7917
  2.556  13.6475
  2.555  13.7505
  2.553  13.5033
  2.552  13.3900
  2.551  13.4621
  2.550  13.7402
  2.548  13.8844
  2.547  13.6990
  2.546  13.5960
  2.545  13.6475
  2.543  13.3591
  2.542  13.4312
  2.541  13.7711
  2.540  13.7711
  2.538  13.8432
  2.537  14.0492
  2.536  13.9874
  2.535  13.9153
  2.533  13.9462
  2.532  13.7814
  2.531  13.5651
  2.530  13.4827
  2.528  13.6887
  2.527  13.6372
  2.526  13.6269
  2.525  13.6475
  2.524  13.7608
  2.522  13.8123
  2.521  13.9050
  2.520  14.0286
  2.519  14.1831
  2.517  14.2243
  2.516  14.0183
  2.515  13.8329
  2.514  13.7299
  2.513  13.6372
  2.511  13.6063
  2.510  13.4827
  2.509  13.6578
  2.508  13.7814
  2.506  13.5960
  2.505  13.6681
  2.504  13.9874
  2.503  14.0698
  2.502  13.7196
  2.500  13.7505
  2.497  13.7505
  2.493  13.6505
  2.489  13.6505
  2.485  13.6505
  2.481  13.6505
  2.477  13.4505
  2.473  13.4505
  2.469  13.2505
  2.465  13.4505
  2.461  13.4505
  2.457  13.4505
  2.453  13.2505
  2.449  13.2505
  2.445  13.1505
  2.441  13.2505
  2.437  13.2505
  2.433  13.4505
  2.429  13.2505
  2.425  13.5505
  2.421  13.5505
  2.417  13.5505
  2.413  13.2505
  2.409  13.2505
  2.405  13.2505
  2.401  13.2505
  2.397  13.2505
  2.393  13.4505
  2.389  13.4505
  2.385  13.5505
  2.381  13.2505
  2.377  13.4505
  2.373  13.1505
  2.369  13.2505
  2.365  13.2505
  2.361  13.2505
  2.357  13.0505
  2.353  13.0505
  2.349  13.0505
  2.345  13.1505
  2.341  13.2505
  2.337  13.2505
  2.333  13.0505
  2.329  12.9505
  2.325  12.9505
  2.321  12.9505
  2.317  12.7505
  2.313  12.9505
  2.309  12.7505
  2.305  12.7505
  2.301  12.4505
  2.297  12.7505
  2.293  12.5505
  2.289  12.6505
  2.285  12.9505
  2.281  13.1505
  2.277  13.2505
  2.273  13.2505
  2.269  13.4505
  2.265  13.2505
  2.261  13.2505
  2.257  13.1505
  2.253  13.0505
  2.249  13.0505
  2.245  13.0505
  2.241  13.0505
  2.237  12.9505
  2.233  13.1505
  2.229  13.0505
  2.225  12.7505
  2.221  12.7505
  2.217  12.7505
  2.213  12.7505
  2.209  12.7505
  2.205  12.9505
  2.201  12.9505
  2.197  13.0505
  2.193  13.0505
  2.189  13.0505
  2.185  13.1505
  2.181  13.0505
  2.177  13.1505
  2.173  13.1505
  2.169  13.2505
  2.165  13.2505
  2.161  13.1505
  2.157  13.1505
  2.153  13.2505
  2.149  13.2505
  2.145  13.2505
  2.141  13.2505
  2.137  13.4505
  2.133  13.2505
  2.129  13.1505
  2.125  13.1505
  2.121  13.2505
  2.117  13.4505
  2.113  13.4505
  2.109  13.4505
  2.105  13.2505
  2.101  13.4505
  2.097  13.4505
  2.093  13.4505
  2.089  13.4505
  2.085  13.4505
  2.081  13.4505
  2.077  13.5505
  2.073  13.4505
  2.069  13.4505
  2.065  13.4505
  2.061  13.2505
  2.057  13.2505
  2.053  13.2505
  2.049  13.4505
  2.045  13.4505
  2.041  13.4505
  2.037  13.4505
  2.033  13.2505
  2.029  13.4505
  2.025  13.2505
  2.021  13.1505
  2.017  13.0505
  2.013  13.1505
  2.009  13.0505
  2.005  12.9505
  2.001  13.1505
  1.997  13.0505
  1.993  13.0505
  1.989  13.0505
  1.985  13.0505
  1.981  12.9505
  1.977  12.9505
  1.973  13.0505
  1.969  13.0505
  1.965  13.2505
  1.961  13.1505
  1.957  13.0505
  1.953  13.0505
  1.949  12.9505
  1.945  12.9505
  1.941  12.7505
  1.937  12.7505
  1.933  12.9505
  1.929  12.7505
  1.925  12.7505
  1.921  12.7505
  1.917  12.6505
  1.913  12.9505
  1.909  12.9505
  1.905  13.0505
  1.901  12.9505
  1.897  13.0505
  1.893  13.0505
  1.889  13.0505
  1.885  13.0505
  1.881  13.1505
  1.877  13.4505
  1.873  13.2505
  1.869  13.1505
  1.865  12.9505
  1.861  13.0505
  1.857  13.0505
  1.853  13.2505
  1.849  13.4505
  1.845  13.5505
  1.841  13.4505
  1.837  13.5505
  1.833  13.2505
  1.829  13.2505
  1.825  13.4505
  1.821  13.2505
  1.817  13.4505
  1.813  13.2505
  1.809  13.4505
  1.805  13.2505
  1.801  13.4505
  1.797  13.4505
  1.793  13.4505
  1.789  13.4505
  1.785  13.4505
  1.781  13.4505
  1.777  13.5505
  1.773  13.5505
  1.769  13.4505
  1.765  13.5505
  1.761  13.5505
  1.757  13.4505
  1.753  13.4505
  1.749  13.5505
  1.745  13.5505
  1.741  13.5505
  1.737  13.4505
  1.733  13.5505
  1.729  13.5505
  1.725  13.6505
  1.721  13.5505
  1.717  13.6505
  1.713  13.6505
  1.709  13.6505
  1.705  13.5505
  1.701  13.6505
  1.697  13.7505
  1.693  13.7505
  1.689  13.7505
  1.685  13.7505
  1.681  13.7505
  1.677  13.7505
  1.673  13.8505
  1.669  13.7505
  1.665  13.6505
  1.661  13.8505
  1.657  13.7505
  1.653  14.0505
  1.649  14.0505
  1.645  13.8505
  1.641  13.8505
  1.637  14.0505
  1.633  13.8505
  1.629  14.0505
  1.625  14.0505
  1.621  14.1505
  1.617  14.0505
  1.613  14.0505
  1.609  14.1505
  1.605  14.0505
  1.601  14.1505
  1.597  14.0505
  1.593  14.1505
  1.589  14.0505
  1.585  14.0505
  1.581  14.1505
  1.577  14.2505
  1.573  14.2505
  1.569  14.2505
  1.565  14.2505
  1.561  14.2505
  1.557  14.3505
  1.553  14.2505
  1.549  14.3505
  1.545  14.5505
  1.541  14.5505
  1.537  14.5505
  1.533  14.5505
  1.529  14.5505
  1.525  14.6505
  1.521  14.8505
  1.517  14.8505
  1.513  14.8505
  1.509  14.8505
  1.505  14.8505
  1.501  14.8505
  1.497  14.7505
  1.493  14.7505
  1.489  14.7505
  1.485  14.8505
  1.481  14.8505
  1.477  14.9505
  1.473  14.8505
  1.469  14.9505
  1.465  14.9505
  1.461  15.1505
  1.457  15.1505
  1.453  14.9505
  1.449  15.1505
  1.445  15.1505
  1.441  15.1505
  1.437  15.1505
  1.433  15.1505
  1.429  15.1505
  1.425  15.2505
  1.421  15.2505
  1.417  15.3505
  1.413  15.2505
  1.409  15.2505
  1.405  15.3505
  1.401  15.2505
  1.397  15.4505
  1.393  15.4505
  1.389  15.4505
  1.385  15.4505
  1.381  15.6505
  1.377  15.3505
  1.373  15.6505
  1.369  15.9505
  1.365  15.9505
  1.361  15.7505
  1.357  15.7505
  1.353  15.9505
  1.349  16.2505
  1.345  16.4505
  1.341  16.5505
  1.337  16.7505
  1.333  16.7505
  1.329  16.8505
  1.325  16.8505
  1.321  16.9505
  1.317  16.7505
  1.313  16.8505
  1.309  16.8505
  1.305  16.9505
  1.301  16.9505
  1.297  17.1505
  1.293  17.0505
  1.289  17.1505
  1.285  17.1505
  1.281  17.3505
  1.277  17.1505
  1.273  17.1505
  1.269  17.3505
  1.265  17.5505
  1.261  17.5505
  1.257  17.6505
  1.253  17.6505
  1.249  17.6505
  1.245  17.5505
  1.241  17.6505
  1.237  17.9505
  1.233  18.0505
  1.229  18.1505
  1.225  18.1505
  1.221  18.2505
  1.217  18.1505
  1.213  18.1505
  1.209  18.4505
  1.205  18.4505
  1.201  18.5505
  1.197  18.6505
  1.193  18.7505
  1.189  18.7505
  1.185  18.9505
  1.181  19.0505
  1.177  19.0505
  1.173  19.2505
  1.169  19.3505
  1.165  19.3505
  1.161  19.5505
  1.157  19.6505
  1.153  19.7505
  1.149  20.0505
  1.145  19.8505
  1.141  20.0505
  1.137  19.8505
  1.133  19.7505
  1.129  20.0505
  1.125  20.2505
  1.121  20.2505
  1.117  20.4505
  1.113  20.4505
  1.109  20.6505
  1.105  20.8505
  1.101  20.9505
  1.097  20.9505
  1.093  20.8505
  1.089  20.8505
  1.085  20.9505
  1.081  21.1505
  1.077  21.1505
  1.073  21.3505
  1.069  21.8505
  1.065  21.7505
  1.061  21.8505
  1.057  21.9505
  1.053  21.9505
  1.049  22.0505
  1.045  22.2505
  1.041  22.0505
  1.037  22.0505
  1.033  22.3505
  1.029  22.3505
  1.025  22.4505
  1.021  22.5505
  1.017  22.4505
  1.013  22.4505
  1.009  22.6505
  1.005  22.8505
  1.001  22.6505
  0.997  22.8505
  0.993  22.8505
  0.989  22.6505
  0.985  22.8505
  0.981  22.8505
  0.977  23.0505
  0.973  22.8505
  0.969  22.8505
  0.965  22.9505
  0.961  22.8505
  0.957  22.9505
  0.953  22.8505
  0.949  22.8505
  0.945  22.6505
  0.941  22.5505
  0.937  22.4505
  0.933  22.4505
  0.929  22.4505
  0.925  22.3505
  0.921  22.3505
  0.917  22.2505
  0.913  22.2505
  0.909  22.0505
  0.905  21.9505
  0.901  21.8505
  0.897  21.8505
  0.893  21.5505
  0.889  21.5505
  0.885  21.5505
  0.881  21.4505
  0.877  21.4505
  0.873  21.4505
  0.869  21.3505
  0.865  21.1505
  0.861  21.1505
  0.857  21.1505
  0.853  21.3505
  0.849  21.1505
  0.845  21.2505
  0.841  21.3505
  0.837  21.3505
  0.833  21.3505
  0.829  21.2505
  0.825  21.4505
  0.821  21.3505
  0.817  21.5505
  0.813  21.5505
  0.809  21.7505
  0.805  21.7505
  0.804  21.4505
  0.803  21.4505
  0.802  21.4505
  0.801  21.8505
  0.800  21.7505
  0.799  21.5505
  0.798  21.5505
  0.797  21.5505
  0.796  21.5505
  0.795  21.4505
  0.794  21.8505
  0.793  21.8505
  0.792  21.8505
  0.791  21.8505
  0.790  21.8505
  0.789  21.9505
  0.788  21.9505
  0.787  21.9505
  0.786  21.8505
  0.785  21.7505
  0.784  21.4505
  0.783  21.5505
  0.782  21.7505
  0.781  21.4505
  0.780  21.8505
  0.779  21.7505
  0.778  21.9505
  0.777  22.0505
  0.776  21.9505
  0.775  21.8505
  0.774  21.5505
  0.773  21.7505
  0.772  21.5505
  0.771  21.5505
  0.770  21.7505
  0.769  21.8505
  0.768  21.5505
  0.767  21.5505
  0.766  21.7505
  0.765  21.5505
  0.764  21.5505
  0.763  21.4505
  0.762  21.4505
  0.761  21.4505
  0.760  21.3505
  0.759  21.3505
  0.758  21.4505
  0.757  21.4505
  0.756  21.5505
  0.755  21.5505
  0.754  21.2505
  0.753  21.2505
  0.752  21.2505
  0.751  21.3505
  0.750  21.4505
  0.749  21.5505
  0.748  21.2505
  0.747  21.1505
  0.746  21.4505
  0.745  21.3505
  0.744  21.2505
  0.743  21.3505
  0.742  21.1505
  0.741  20.7505
  0.740  20.7505
  0.739  20.9505
  0.738  20.8505
  0.737  20.8505
  0.736  20.9505
  0.735  20.9505
  0.734  20.7505
  0.733  20.8505
  0.732  20.6505
  0.731  20.4505
  0.730  20.6505
  0.729  20.6505
  0.728  20.4505
  0.727  20.4505
  0.726  20.3505
  0.725  20.4505
  0.724  20.4505
  0.723  20.7505
  0.722  20.3505
  0.721  20.3505
  0.720  20.1505
  0.719  20.1505
  0.718  20.2505
  0.717  20.2505
  0.716  20.1505
  0.715  20.0505
  0.714  20.0505
  0.713  20.1505
  0.712  20.1505
  0.711  20.0505
  0.710  20.1505
  0.709  20.0505
  0.708  20.1505
  0.707  20.0505
  0.706  19.7505
  0.705  19.7505
  0.704  19.7505
  0.703  19.3505
  0.702  19.5505
  0.701  19.5505
  0.700  19.3505
  0.699  19.2505
  0.698  19.1505
  0.697  19.2505
  0.696  19.2505
  0.695  19.2505
  0.694  19.1505
  0.693  19.1505
  0.692  19.1505
  0.691  18.9505
  0.690  18.7505
  0.689  18.7505
  0.688  18.9505
  0.687  19.0505
  0.686  18.7505
  0.685  18.7505
  0.684  18.7505
  0.683  18.9505
  0.682  18.6505
  0.681  18.7505
  0.680  18.7505
  0.679  18.7505
  0.678  18.7505
  0.677  18.9505
  0.676  18.6505
  0.675  18.5505
  0.674  18.5505
  0.673  18.6505
  0.672  18.5505
  0.671  18.5505
  0.670  18.5505
  0.669  18.2505
  0.668  18.4505
  0.667  18.4505
  0.666  18.4505
  0.665  18.2505
  0.664  18.4505
  0.663  18.2505
  0.662  18.1505
  0.661  18.1505
  0.660  18.1505
  0.659  18.1505
  0.658  18.2505
  0.657  18.2505
  0.656  18.1505
  0.655  17.9505
  0.654  18.0505
  0.653  18.0505
  0.652  18.0505
  0.651  18.0505
  0.650  17.9505
  0.649  18.1505
  0.648  18.1505
  0.647  18.0505
  0.646  18.0505
  0.645  17.9505
  0.644  17.8505
  0.643  17.8505
  0.642  17.8505
  0.641  17.8505
  0.640  17.8505
  0.639  17.8505
  0.638  17.6505
  0.637  17.8505
  0.636  17.8505
  0.635  17.8505
  0.634  17.8505
  0.633  17.8505
  0.632  17.6505
  0.631  17.5505
  0.630  17.6505
  0.629  17.4505
  0.628  17.4505
  0.627  17.6505
  0.626  17.6505
  0.625  17.6505
  0.624  17.4505
  0.623  17.4505
  0.622  17.5505
  0.621  17.6505
  0.620  17.6505
  0.619  17.4505
  0.618  17.6505
  0.617  17.6505
  0.616  17.5505
  0.615  17.5505
  0.614  17.5505
  0.613  17.4505
  0.612  17.5505
  0.611  17.5505
  0.610  17.4505
  0.609  17.3505
  0.608  17.3505
  0.607  17.3505
  0.606  17.3505
  0.605  17.3505
  0.604  17.4505
  0.603  17.1505
  0.602  17.1505
  0.601  17.1505
  0.600  17.0505
  0.599  17.0505
  0.598  17.0505
  0.597  16.9505
  0.596  16.8505
  0.595  16.9505
  0.594  16.9505
  0.593  17.0505
  0.592  17.0505
  0.591  16.7505
  0.590  16.7505
  0.589  16.7505
  0.588  16.7505
  0.587  16.8505
  0.586  16.8505
  0.585  16.7505
  0.584  16.7505
  0.583  16.3505
  0.582  16.4505
  0.581  16.3505
  0.580  16.4505
  0.579  16.5505
  0.578  16.3505
  0.577  16.0505
  0.576  16.2505
  0.575  16.2505
  0.574  16.4505
  0.573  16.4505
  0.572  16.2505
  0.571  16.0505
  0.570  16.2505
  0.569  16.2505
  0.568  16.0505
  0.567  15.9505
  0.566  15.8505
  0.565  15.8505
  0.564  15.8505
  0.563  15.7505
  0.562  15.7505
  0.561  15.4505
  0.560  15.6505
  0.559  15.6505
  0.558  15.6505
  0.557  15.3505
  0.556  15.4505
  0.555  15.3505
  0.554  15.3505
  0.553  15.3505
  0.552  15.3505
  0.551  15.4505
  0.550  15.3505
  0.549  15.4505
  0.548  15.2505
  0.547  15.2505
  0.546  15.2505
  0.545  15.3505
  0.544  15.2505
  0.543  15.1505
  0.542  15.4505
  0.541  15.3505
  0.540  15.2505
  0.539  15.2505
  0.538  15.1505
  0.537  15.1505
  0.536  15.3505
  0.535  15.3505
  0.534  15.3505
  0.533  15.3505
  0.532  15.2505
  0.531  15.2505
  0.530  15.1505
  0.529  15.2505
  0.528  15.3505
  0.527  15.3505
  0.526  15.4505
  0.525  15.6505
  0.524  15.4505
  0.523  15.3505
  0.522  15.4505
  0.521  15.6505
  0.520  15.4505
  0.519  15.2505
  0.518  15.2505
  0.517  15.3505
  0.516  15.4505
  0.515  15.4505
  0.514  15.3505
  0.513  15.4505
  0.512  15.4505
  0.511  15.7505
  0.510  15.7505
  0.509  15.7505
  0.508  15.7505
  0.507  15.7505
  0.506  15.6505
  0.505  15.4505
  0.504  15.4505
  0.503  15.4505
  0.502  15.8505
  0.501  15.9505
  0.500  15.9505
  0.499  15.6505
  0.498  15.6505
  0.497  15.4505
  0.496  15.7505
  0.495  15.9505
  0.494  15.8505
  0.493  15.8505
  0.492  15.9505
  0.491  15.8505
  0.490  15.8505
  0.489  15.8505
  0.488  15.8505
  0.487  15.7505
  0.486  15.7505
  0.485  15.9505
  0.484  15.8505
  0.483  15.9505
  0.482  15.8505
  0.481  15.9505
  0.480  16.2505
  0.479  15.9505
  0.478  16.0505
  0.477  15.9505
  0.476  16.2505
  0.475  16.2505
  0.474  16.2505
  0.473  16.2505
  0.472  16.3505
  0.471  16.4505
  0.470  16.4505
  0.469  16.5505
  0.468  16.4505
  0.467  16.5505
  0.466  16.5505
  0.465  16.5505
  0.464  17.0505
  0.463  17.0505
  0.462  17.0505
  0.461  17.1505
  0.460  17.0505
  0.459  17.1505
  0.458  17.1505
  0.457  17.0505
  0.456  16.9505
  0.455  16.8505
  0.454  17.3505
  0.453  17.5505
  0.452  17.5505
  0.451  17.6505
  0.450  17.6505
  0.449  17.5505
  0.448  17.5505
  0.447  17.5505
  0.446  17.5505
  0.445  17.5505
  0.444  17.4505
  0.443  17.5505
  0.442  17.5505
  0.441  17.5505
  0.440  17.5505
  0.439  17.6505
  0.438  17.8505
  0.437  17.8505
  0.436  17.8505
  0.435  17.8505
  0.434  17.8505
  0.433  18.0505
  0.432  18.0505
  0.431  17.9505
  0.430  18.0505
  0.429  17.9505
  0.428  18.2505
  0.427  18.1505
  0.426  18.0505
  0.425  18.0505
  0.424  18.1505
  0.423  18.2505
  0.422  18.2505
  0.421  18.4505
  0.420  18.4505
  0.419  18.1505
  0.418  18.1505
  0.417  18.2505
  0.416  18.2505
  0.415  18.4505
  0.414  18.2505
  0.413  18.5505
  0.412  18.5505
  0.411  18.4505
  0.410  18.4505
  0.409  18.4505
  0.408  18.5505
  0.407  18.5505
  0.406  18.4505
  0.405  18.4505
