Name: Rhyolite
Type: Rock
Class: Igneous
Subclass: Felsic
Particle Size: Whole Rock Chips
Sample No.: AP-938-93
Owner: United States Geological Survey, L. C. Rowan
Wavelength range: 0.405 - 14.05 um
Origin: Iberian Pyrite Belt, Spain

Description: Rhyolite, white, chalky, altered





Measurement: Directional Hemispherical Reflectance
First Column: X
Second Column: Y
X Units: Wavelength (micrometers)
Y Units: Reflectance (percent)
First X Value: 14.05105
Last X Value: 0.40500
Number of X Values: 2530
Additional Information: rhy93a.txt

 14.051   3.0797
 14.013   2.9252
 13.975   2.9252
 13.938   2.7295
 13.900   2.8222
 13.863   2.8325
 13.826   2.8119
 13.790   2.5235
 13.753   2.5853
 13.717   2.6471
 13.680   2.7089
 13.644   2.4926
 13.609   2.5029
 13.573   2.5750
 13.538   2.7089
 13.502   2.5441
 13.467   2.5544
 13.432   2.5544
 13.398   2.6883
 13.363   2.5750
 13.329   2.5544
 13.295   2.5235
 13.261   2.6162
 13.227   2.6265
 13.193   2.6883
 13.160   2.6780
 13.126   2.8119
 13.093   2.8840
 13.060   2.9458
 13.027   2.8840
 12.995   2.9561
 12.962   2.8943
 12.930   2.9046
 12.898   3.0179
 12.866   3.1930
 12.834   3.1827
 12.802   3.2651
 12.771   3.1930
 12.739   3.0900
 12.708   2.8428
 12.677   2.8016
 12.646   2.7604
 12.616   2.7913
 12.585   2.7089
 12.554   2.7398
 12.524   2.7089
 12.494   2.8840
 12.464   3.0900
 12.434   3.1518
 12.404   3.0076
 12.375   3.0488
 12.345   2.9355
 12.316   2.8634
 12.287   2.7398
 12.258   2.7398
 12.229   2.7810
 12.200   2.9458
 12.171   3.0385
 12.143   3.2754
 12.115   3.3166
 12.086   3.3990
 12.058   3.4299
 12.030   3.5432
 12.002   3.5741
 11.975   3.6874
 11.947   3.7698
 11.920   3.8831
 11.892   3.9140
 11.865   4.0479
 11.838   4.0582
 11.811   4.1921
 11.784   4.2848
 11.757   4.4187
 11.731   4.4496
 11.704   4.4908
 11.678   4.4393
 11.652   4.6247
 11.626   4.6453
 11.600   4.6453
 11.574   4.6247
 11.548   4.7586
 11.522   4.7380
 11.497   4.7483
 11.471   4.7483
 11.446   4.7483
 11.421   4.7071
 11.396   4.8204
 11.371   4.8101
 11.346   4.8822
 11.321   4.9131
 11.297   4.9852
 11.272   4.9852
 11.248   5.0676
 11.223   4.9955
 11.199   4.9749
 11.175   5.0058
 11.151   5.1397
 11.127   5.1294
 11.103   5.1397
 11.079   5.1191
 11.056   5.1809
 11.032   5.1603
 11.009   5.2118
 10.985   5.2118
 10.962   5.2427
 10.939   5.1603
 10.916   5.1191
 10.893   5.0058
 10.870   4.8822
 10.848   4.7689
 10.825   4.8204
 10.802   4.7586
 10.780   4.6453
 10.758   4.5011
 10.735   4.5114
 10.713   4.4805
 10.691   4.4496
 10.669   4.3569
 10.647   4.4084
 10.625   4.3775
 10.604   4.4084
 10.582   4.3363
 10.560   4.3981
 10.539   4.3878
 10.518   4.3672
 10.496   4.3466
 10.475   4.3775
 10.454   4.3363
 10.433   4.4187
 10.412   4.4290
 10.391   4.4599
 10.370   4.4908
 10.350   4.6453
 10.329   4.6968
 10.309   4.8101
 10.288   4.9028
 10.268   5.0676
 10.247   5.0985
 10.227   5.2736
 10.207   5.4178
 10.187   5.6341
 10.167   5.7680
 10.147   5.9946
 10.127   6.2315
 10.108   6.4581
 10.088   6.5817
 10.068   6.7877
 10.049   6.9834
 10.029   7.2100
 10.010   7.3645
  9.991   7.5808
  9.972   7.7662
  9.952   8.0134
  9.933   8.2194
  9.914   8.3018
  9.895   8.2606
  9.877   8.2606
  9.858   8.1164
  9.839   8.0031
  9.821   7.7765
  9.802   7.6220
  9.783   7.5705
  9.765   7.7044
  9.747   8.0031
  9.728   8.4563
  9.710   8.8580
  9.692   9.4142
  9.674   9.7953
  9.656  10.2279
  9.638  10.5163
  9.620  10.7017
  9.602  10.7944
  9.585  10.8974
  9.567  10.8871
  9.549  10.9180
  9.532  10.8768
  9.514  10.8253
  9.497  10.7738
  9.479  10.7841
  9.462  10.7326
  9.445  10.7944
  9.428  10.9798
  9.411  11.3300
  9.394  11.4845
  9.377  11.6596
  9.360  11.8141
  9.343  11.9480
  9.326  11.9377
  9.309  11.9274
  9.293  11.8450
  9.276  11.7420
  9.259  11.6184
  9.243  11.5257
  9.226  11.2991
  9.210  11.1137
  9.194  10.8768
  9.178  10.7017
  9.161  10.4957
  9.145  10.3515
  9.129  10.0425
  9.113   9.7438
  9.097   9.3936
  9.081   9.1773
  9.065   8.9095
  9.049   8.6623
  9.034   8.2709
  9.018   8.0340
  9.002   7.8898
  8.987   7.8177
  8.971   7.9207
  8.956   8.1782
  8.940   8.4357
  8.925   8.7653
  8.909   8.9713
  8.894   9.2288
  8.879   9.3421
  8.864   9.5172
  8.849   9.5687
  8.834   9.6099
  8.819   9.5996
  8.804   9.6614
  8.789   9.7129
  8.774   9.7438
  8.759   9.6305
  8.744   9.6305
  8.730   9.6820
  8.715   9.7026
  8.700   9.5275
  8.686   9.4039
  8.671   9.3215
  8.657   9.1876
  8.642   8.8683
  8.628   8.5490
  8.614   8.3842
  8.599   8.7138
  8.585   9.0846
  8.571   9.3524
  8.557   9.6408
  8.543   9.8777
  8.529   9.9807
  8.515  10.1558
  8.501  10.2382
  8.487  10.3412
  8.473  10.4442
  8.459  10.5781
  8.445  10.7120
  8.431  10.9283
  8.418  11.0416
  8.404  11.1858
  8.391  11.3094
  8.377  11.3403
  8.363  11.3094
  8.350  11.3918
  8.337  11.4227
  8.323  11.4742
  8.310  11.4433
  8.297  11.4433
  8.283  11.4433
  8.270  11.4124
  8.257  11.3506
  8.244  11.4536
  8.231  11.4021
  8.218  11.2579
  8.205  11.2270
  8.192  11.1549
  8.179  10.9283
  8.166  10.7223
  8.153  10.4236
  8.140  10.0425
  8.128   9.5378
  8.115   9.0434
  8.102   8.4666
  8.090   7.9104
  8.077   7.3851
  8.064   6.9731
  8.052   6.4787
  8.039   6.0873
  8.027   5.7062
  8.015   5.3045
  8.002   4.9440
  7.990   4.6968
  7.978   4.4290
  7.965   4.1612
  7.953   3.8419
  7.941   3.5947
  7.929   3.3166
  7.917   3.1415
  7.905   2.9355
  7.893   2.8119
  7.881   2.5956
  7.869   2.3999
  7.857   2.2660
  7.845   2.1630
  7.833   1.9982
  7.821   1.9467
  7.809   1.8540
  7.798   1.7819
  7.786   1.7613
  7.774   1.8128
  7.763   1.7510
  7.751   1.7304
  7.739   1.6480
  7.728   1.5862
  7.716   1.5347
  7.705   1.5141
  7.694   1.5038
  7.682   1.5244
  7.671   1.3905
  7.659   1.2875
  7.648   1.3081
  7.637   1.3699
  7.626   1.3287
  7.614   1.2978
  7.603   1.2154
  7.592   1.2360
  7.581   1.2051
  7.570   1.1948
  7.559   1.1536
  7.548   1.2154
  7.537   1.2257
  7.526   1.1845
  7.515   1.1330
  7.504   1.1330
  7.493   1.1124
  7.483   1.1330
  7.472   1.1021
  7.461   1.0815
  7.450   1.1536
  7.440   1.1948
  7.429   1.1227
  7.418   1.1433
  7.408   1.1227
  7.397   1.1021
  7.387   1.1330
  7.376   1.2463
  7.366   1.2360
  7.355   1.1845
  7.345   1.1330
  7.334   1.1536
  7.324   1.2051
  7.314   1.2360
  7.303   1.1948
  7.293   1.2360
  7.283   1.2051
  7.273   1.1536
  7.263   1.1948
  7.252   1.2772
  7.242   1.3390
  7.232   1.3699
  7.222   1.3287
  7.212   1.3596
  7.202   1.3905
  7.192   1.4420
  7.182   1.4317
  7.172   1.4626
  7.162   1.4317
  7.152   1.4626
  7.143   1.4729
  7.133   1.5244
  7.123   1.5553
  7.113   1.5450
  7.103   1.5656
  7.094   1.6686
  7.084   1.5759
  7.074   1.5656
  7.065   1.6171
  7.055   1.6583
  7.046   1.6583
  7.036   1.6995
  7.026   1.6995
  7.017   1.7201
  7.007   1.7716
  6.998   1.7922
  6.989   1.7922
  6.979   1.7819
  6.970   1.7201
  6.960   1.7613
  6.951   1.8128
  6.942   1.8746
  6.932   1.8849
  6.923   1.8746
  6.914   1.8643
  6.905   1.9158
  6.896   1.9364
  6.886   1.9673
  6.877   1.9776
  6.868   2.0188
  6.859   1.9673
  6.850   1.9261
  6.841   1.9673
  6.832   2.0291
  6.823   1.9982
  6.814   2.0188
  6.805   2.0600
  6.796   2.0497
  6.787   1.9879
  6.778   1.9879
  6.770   1.9879
  6.761   2.0806
  6.752   2.1115
  6.743   2.0909
  6.734   2.0600
  6.726   2.0703
  6.717   2.0497
  6.708   2.1321
  6.700   2.1321
  6.691   2.1939
  6.682   2.2351
  6.674   2.2351
  6.665   2.2042
  6.657   2.2042
  6.648   2.2145
  6.640   2.2042
  6.631   2.2351
  6.623   2.3072
  6.614   2.2969
  6.606   2.3381
  6.597   2.3587
  6.589   2.3175
  6.581   2.2454
  6.572   2.2660
  6.564   2.3381
  6.556   2.3793
  6.547   2.3896
  6.539   2.3690
  6.531   2.3587
  6.523   2.4411
  6.514   2.5132
  6.506   2.5544
  6.498   2.6059
  6.490   2.6986
  6.482   2.7192
  6.474   2.7604
  6.466   2.7604
  6.458   2.7604
  6.450   2.7604
  6.442   2.8222
  6.434   2.8634
  6.426   2.9046
  6.418   2.8943
  6.410   2.8737
  6.402   2.9252
  6.394   3.0076
  6.386   2.9767
  6.378   2.8737
  6.370   2.7707
  6.363   2.7398
  6.355   2.7604
  6.347   2.8016
  6.339   2.8119
  6.332   2.8428
  6.324   2.8016
  6.316   2.7810
  6.308   2.7604
  6.301   2.6986
  6.293   2.6162
  6.286   2.6677
  6.278   2.6986
  6.270   2.6471
  6.263   2.5544
  6.255   2.5235
  6.248   2.4926
  6.240   2.5338
  6.233   2.4720
  6.225   2.4102
  6.218   2.4308
  6.210   2.4308
  6.203   2.4617
  6.195   2.4926
  6.188   2.4617
  6.181   2.3793
  6.173   2.3072
  6.166   2.3690
  6.159   2.4411
  6.151   2.4720
  6.144   2.4720
  6.137   2.5029
  6.130   2.5544
  6.122   2.6265
  6.115   2.6265
  6.108   2.6677
  6.101   2.6162
  6.094   2.6368
  6.086   2.6883
  6.079   2.6986
  6.072   2.6780
  6.065   2.6677
  6.058   2.6780
  6.051   2.7089
  6.044   2.6780
  6.037   2.7398
  6.030   2.8325
  6.023   2.8840
  6.016   2.8737
  6.009   2.8840
  6.002   2.8737
  5.995   2.8634
  5.988   2.8737
  5.981   2.9046
  5.974   2.8840
  5.967   2.9149
  5.960   2.9767
  5.954   3.0076
  5.947   2.9664
  5.940   2.9561
  5.933   2.9458
  5.926   3.0076
  5.920   3.0488
  5.913   3.0591
  5.906   3.0488
  5.899   3.0797
  5.893   3.0797
  5.886   3.1415
  5.879   3.2136
  5.873   3.2857
  5.866   3.3269
  5.859   3.3475
  5.853   3.4402
  5.846   3.5741
  5.840   3.6050
  5.833   3.6771
  5.827   3.6874
  5.820   3.6771
  5.813   3.6771
  5.807   3.7389
  5.800   3.8213
  5.794   3.8419
  5.788   3.8213
  5.781   3.8522
  5.775   3.8728
  5.768   3.8831
  5.762   3.8625
  5.755   3.9037
  5.749   3.9346
  5.743   3.9861
  5.736   4.0479
  5.730   4.0891
  5.724   4.0994
  5.717   4.0685
  5.711   4.0582
  5.705   4.0891
  5.698   4.1097
  5.692   4.1200
  5.686   4.1097
  5.680   4.1200
  5.674   4.0994
  5.667   4.0891
  5.661   4.0376
  5.655   4.0273
  5.649   4.0067
  5.643   3.9861
  5.637   3.9655
  5.630   3.9449
  5.624   3.9037
  5.618   3.8625
  5.612   3.8625
  5.606   3.8522
  5.600   3.8007
  5.594   3.8110
  5.588   3.8007
  5.582   3.8007
  5.576   3.7698
  5.570   3.8110
  5.564   3.8316
  5.558   3.8316
  5.552   3.8419
  5.546   3.8831
  5.540   3.9346
  5.534   4.0479
  5.528   4.1097
  5.523   4.1097
  5.517   4.1097
  5.511   4.1818
  5.505   4.2745
  5.499   4.3569
  5.493   4.4084
  5.487   4.4393
  5.482   4.4702
  5.476   4.5423
  5.470   4.6041
  5.464   4.6144
  5.459   4.6247
  5.453   4.6659
  5.447   4.6968
  5.441   4.7586
  5.436   4.7792
  5.430   4.7586
  5.424   4.7586
  5.419   4.7586
  5.413   4.7174
  5.407   4.6350
  5.402   4.5835
  5.396   4.5732
  5.390   4.5114
  5.385   4.4702
  5.379   4.4290
  5.374   4.3466
  5.368   4.2436
  5.363   4.2230
  5.357   4.2127
  5.352   4.2024
  5.346   4.1921
  5.341   4.2333
  5.335   4.2745
  5.330   4.3054
  5.324   4.3466
  5.319   4.3466
  5.313   4.3157
  5.308   4.3466
  5.302   4.4187
  5.297   4.4084
  5.291   4.4084
  5.286   4.4805
  5.281   4.5526
  5.275   4.6350
  5.270   4.6350
  5.265   4.6350
  5.259   4.6865
  5.254   4.7792
  5.249   4.8719
  5.243   4.9646
  5.238   5.0470
  5.233   5.1397
  5.227   5.2324
  5.222   5.3251
  5.217   5.4384
  5.212   5.5414
  5.206   5.6032
  5.201   5.6856
  5.196   5.7268
  5.191   5.7474
  5.186   5.8195
  5.180   5.8504
  5.175   5.8401
  5.170   5.8504
  5.165   5.8813
  5.160   5.8916
  5.155   5.9122
  5.150   5.9328
  5.145   5.9225
  5.139   5.9019
  5.134   5.9225
  5.129   5.9431
  5.124   5.9843
  5.119   6.0564
  5.114   6.0873
  5.109   6.0770
  5.104   6.0976
  5.099   6.1491
  5.094   6.1903
  5.089   6.2109
  5.084   6.2006
  5.079   6.1697
  5.074   6.1594
  5.069   6.1388
  5.064   6.1388
  5.059   6.1491
  5.054   6.1800
  5.049   6.1800
  5.044   6.1903
  5.040   6.1903
  5.035   6.2315
  5.030   6.2727
  5.025   6.2418
  5.020   6.2418
  5.015   6.2624
  5.010   6.3036
  5.005   6.2933
  5.001   6.2933
  4.996   6.4066
  4.991   6.4375
  4.986   6.4169
  4.981   6.5199
  4.977   6.7156
  4.972   6.8289
  4.967   6.9731
  4.962   7.1791
  4.958   7.3748
  4.953   7.5190
  4.948   7.6220
  4.943   7.7147
  4.939   7.8486
  4.934   7.9310
  4.929   7.9619
  4.925   8.0237
  4.920   8.0752
  4.915   8.1679
  4.911   8.3533
  4.906   8.5799
  4.901   8.8065
  4.897   9.0537
  4.892   9.3936
  4.888   9.6820
  4.883   9.9292
  4.878  10.2073
  4.874  10.4751
  4.869  10.6502
  4.865  10.8150
  4.860  11.0004
  4.856  11.2476
  4.851  11.4124
  4.846  11.5360
  4.842  11.7420
  4.837  11.9068
  4.833  11.9995
  4.828  12.1025
  4.824  12.2364
  4.819  12.3600
  4.815  12.4321
  4.810  12.5351
  4.806  12.5557
  4.802  12.5145
  4.797  12.5042
  4.793  12.5145
  4.788  12.5042
  4.784  12.4733
  4.779  12.4939
  4.775  12.6278
  4.771  12.7308
  4.766  12.6999
  4.762  12.8029
  4.758  12.9883
  4.753  13.1325
  4.749  13.2252
  4.744  13.2973
  4.740  13.3900
  4.736  13.4518
  4.731  13.5033
  4.727  13.5857
  4.723  13.6578
  4.719  13.7505
  4.714  13.8226
  4.710  13.9153
  4.706  13.9668
  4.701  13.9771
  4.697  13.9874
  4.693  13.9256
  4.689  13.8535
  4.684  13.8020
  4.680  13.7814
  4.676  13.8432
  4.672  13.9977
  4.668  14.1522
  4.663  14.2861
  4.659  14.4097
  4.655  14.5745
  4.651  14.6878
  4.647  14.7702
  4.643  14.9350
  4.638  15.1204
  4.634  15.2749
  4.630  15.4603
  4.626  15.6560
  4.622  15.8311
  4.618  16.0062
  4.614  16.2122
  4.610  16.3976
  4.605  16.5006
  4.601  16.6242
  4.597  16.7581
  4.593  16.8199
  4.589  16.9126
  4.585  16.9332
  4.581  17.0259
  4.577  17.1701
  4.573  17.2937
  4.569  17.3555
  4.565  17.3967
  4.561  17.4276
  4.557  17.4482
  4.553  17.4276
  4.549  17.4173
  4.545  17.4482
  4.541  17.4585
  4.537  17.3761
  4.533  17.3246
  4.529  17.2422
  4.525  17.0877
  4.521  17.0156
  4.517  16.9229
  4.513  16.8199
  4.509  16.6757
  4.505  16.4079
  4.502  16.2740
  4.498  16.2328
  4.494  16.1813
  4.490  16.1401
  4.486  16.1195
  4.482  16.1298
  4.478  16.1195
  4.474  16.1092
  4.470  16.1298
  4.467  16.1195
  4.463  16.1607
  4.459  16.2843
  4.455  16.4182
  4.451  16.5521
  4.447  16.7272
  4.444  16.8817
  4.440  16.9950
  4.436  17.0568
  4.432  17.0774
  4.428  17.1289
  4.425  17.2628
  4.421  17.4173
  4.417  17.5718
  4.413  17.6439
  4.410  17.7572
  4.406  17.9220
  4.402  18.0559
  4.398  18.2104
  4.395  18.3546
  4.391  18.4782
  4.387  18.7151
  4.384  18.9211
  4.380  19.0859
  4.376  19.1889
  4.372  19.3228
  4.369  19.5391
  4.365  19.8069
  4.361  19.9614
  4.358  20.0644
  4.354  20.1674
  4.350  20.3219
  4.347  20.4558
  4.343  20.6000
  4.340  20.6515
  4.336  20.7545
  4.332  20.7957
  4.329  20.8369
  4.325  20.8678
  4.321  20.8678
  4.318  20.9193
  4.314  21.0223
  4.311  21.0532
  4.307  21.0223
  4.304  21.0223
  4.300  20.9811
  4.296  20.8575
  4.293  20.8884
  4.289  20.9811
  4.286  20.9914
  4.282  21.0017
  4.279  21.0532
  4.275  21.1459
  4.272  21.2798
  4.268  21.3004
  4.265  21.3210
  4.261  21.4755
  4.258  21.7845
  4.254  21.9390
  4.251  21.7845
  4.247  21.6094
  4.244  21.6300
  4.240  21.6506
  4.237  21.5785
  4.233  21.4755
  4.230  21.5167
  4.226  21.6197
  4.223  21.7433
  4.219  21.7948
  4.216  21.8669
  4.213  21.9390
  4.209  21.9905
  4.206  22.0832
  4.202  22.1862
  4.199  22.2583
  4.196  22.2789
  4.192  22.3201
  4.189  22.4231
  4.185  22.4437
  4.182  22.4540
  4.179  22.5055
  4.175  22.5158
  4.172  22.5467
  4.169  22.6394
  4.165  22.7424
  4.162  22.8145
  4.159  22.8248
  4.155  22.8351
  4.152  22.8557
  4.149  22.9072
  4.145  22.9278
  4.142  22.9381
  4.139  23.0102
  4.135  23.1029
  4.132  23.0926
  4.129  23.1544
  4.126  23.2883
  4.122  23.3295
  4.119  23.3295
  4.116  23.4016
  4.112  23.4531
  4.109  23.4222
  4.106  23.3913
  4.103  23.4840
  4.099  23.5046
  4.096  23.5252
  4.093  23.5458
  4.090  23.5973
  4.086  23.6900
  4.083  23.7724
  4.080  23.7930
  4.077  23.9063
  4.074  23.9784
  4.070  23.9990
  4.067  24.0608
  4.064  24.0608
  4.061  24.0505
  4.058  24.1329
  4.055  24.1123
  4.051  24.0505
  4.048  23.9578
  4.045  23.9269
  4.042  23.9578
  4.039  23.9784
  4.036  23.9681
  4.032  24.0402
  4.029  23.9784
  4.026  24.0093
  4.023  24.1226
  4.020  24.0814
  4.017  24.0505
  4.014  24.0608
  4.011  24.0402
  4.008  24.0505
  4.004  24.0299
  4.001  24.1432
  3.998  24.2359
  3.995  24.2874
  3.992  24.2256
  3.989  24.1844
  3.986  24.2359
  3.983  24.2462
  3.980  24.1226
  3.977  24.2256
  3.974  24.3904
  3.971  24.4831
  3.968  24.5037
  3.965  24.5037
  3.962  24.5140
  3.959  24.6273
  3.956  24.6788
  3.953  24.7097
  3.950  24.7509
  3.947  24.7612
  3.944  24.7818
  3.941  24.8333
  3.938  24.8848
  3.935  24.9672
  3.932  24.9363
  3.929  24.9775
  3.926  25.0187
  3.923  25.0496
  3.920  25.0702
  3.917  25.0084
  3.914  24.9569
  3.911  25.0496
  3.908  25.0908
  3.905  25.1217
  3.902  25.0908
  3.899  25.1320
  3.896  25.1217
  3.893  25.1114
  3.890  25.1835
  3.887  25.2144
  3.884  25.1423
  3.882  25.1423
  3.879  25.0290
  3.876  24.8745
  3.873  24.9569
  3.870  25.0393
  3.867  24.9672
  3.864  24.9569
  3.861  24.9363
  3.858  24.9054
  3.856  24.9157
  3.853  24.9981
  3.850  25.0702
  3.847  25.0908
  3.844  24.9775
  3.841  24.9569
  3.838  24.9775
  3.836  25.0290
  3.833  25.0702
  3.830  25.1526
  3.827  25.1320
  3.824  25.0702
  3.822  25.0908
  3.819  25.1423
  3.816  25.1320
  3.813  25.1526
  3.810  25.0702
  3.807  25.0702
  3.805  25.0908
  3.802  25.0908
  3.799  25.0599
  3.796  25.0496
  3.794  24.9981
  3.791  24.9981
  3.788  25.0290
  3.785  25.0290
  3.782  24.9363
  3.780  24.8848
  3.777  24.9363
  3.774  24.9363
  3.771  24.8436
  3.769  24.8127
  3.766  24.8024
  3.763  24.7818
  3.761  24.6479
  3.758  24.6788
  3.755  24.6582
  3.752  24.5449
  3.750  24.4625
  3.747  24.4213
  3.744  24.4522
  3.742  24.5140
  3.739  24.4625
  3.736  24.3698
  3.733  24.3286
  3.731  24.3080
  3.728  24.2153
  3.725  24.1741
  3.723  24.2668
  3.720  24.3080
  3.717  24.2359
  3.715  24.3183
  3.712  24.2565
  3.709  24.2256
  3.707  24.2359
  3.704  24.2462
  3.702  24.2153
  3.699  24.1123
  3.696  24.0814
  3.694  24.1226
  3.691  24.0402
  3.688  24.0402
  3.686  24.1123
  3.683  24.2668
  3.680  24.3080
  3.678  24.3389
  3.675  24.2668
  3.673  24.2256
  3.670  24.2668
  3.667  24.3492
  3.665  24.3080
  3.662  24.2153
  3.660  24.1329
  3.657  24.2050
  3.655  24.1947
  3.652  24.0917
  3.649  23.8960
  3.647  23.7827
  3.644  23.8548
  3.642  24.0505
  3.639  24.0608
  3.637  24.0196
  3.634  23.8960
  3.632  23.8033
  3.629  23.7106
  3.626  23.6694
  3.624  23.6179
  3.621  23.6076
  3.619  23.6591
  3.616  23.6797
  3.614  23.5664
  3.611  23.4634
  3.609  23.3913
  3.606  23.4531
  3.604  23.4119
  3.601  23.2883
  3.599  23.1750
  3.596  23.1647
  3.594  23.2059
  3.591  23.1647
  3.589  22.9896
  3.586  22.9690
  3.584  23.0102
  3.581  22.9587
  3.579  22.8969
  3.576  22.9175
  3.574  22.8763
  3.571  22.7836
  3.569  22.7012
  3.567  22.8042
  3.564  22.7836
  3.562  22.6806
  3.559  22.5467
  3.557  22.5570
  3.554  22.4849
  3.552  22.3304
  3.549  22.3819
  3.547  22.4540
  3.545  22.3922
  3.542  22.3304
  3.540  22.2583
  3.537  22.2583
  3.535  22.1656
  3.533  22.1759
  3.530  22.1038
  3.528  21.9493
  3.525  21.9390
  3.523  21.9390
  3.521  21.7433
  3.518  21.6712
  3.516  21.6918
  3.513  21.5785
  3.511  21.4446
  3.509  21.4343
  3.506  21.3931
  3.504  21.3519
  3.502  21.3004
  3.499  21.3828
  3.497  21.3622
  3.494  21.1768
  3.492  21.1047
  3.490  21.1047
  3.487  21.0429
  3.485  20.9399
  3.483  20.8987
  3.480  21.0017
  3.478  20.9811
  3.476  20.8987
  3.473  20.8369
  3.471  20.7339
  3.469  20.6103
  3.466  20.6618
  3.464  20.6721
  3.462  20.6515
  3.460  20.5485
  3.457  20.4661
  3.455  20.4249
  3.453  20.4249
  3.450  20.3528
  3.448  20.3528
  3.446  20.3631
  3.443  20.2807
  3.441  20.1365
  3.439  20.0129
  3.437  19.9305
  3.434  19.8275
  3.432  19.7863
  3.430  19.7863
  3.428  19.6936
  3.425  19.6112
  3.423  19.5185
  3.421  19.4567
  3.418  19.3640
  3.416  19.2507
  3.414  19.2198
  3.412  19.2919
  3.409  19.1992
  3.407  19.0859
  3.405  19.0241
  3.403  19.1065
  3.401  19.0653
  3.398  19.0344
  3.396  19.0138
  3.394  19.0962
  3.392  19.0962
  3.389  18.9520
  3.387  18.7975
  3.385  18.7151
  3.383  18.6327
  3.381  18.6636
  3.378  18.6121
  3.376  18.6018
  3.374  18.6224
  3.372  18.6430
  3.370  18.4473
  3.367  18.2825
  3.365  18.3649
  3.363  18.4370
  3.361  18.3855
  3.359  18.4061
  3.357  18.3958
  3.354  18.2928
  3.352  18.2722
  3.350  18.1898
  3.348  18.1074
  3.346  18.0765
  3.344  18.0765
  3.341  18.0147
  3.339  17.9632
  3.337  18.0147
  3.335  17.9529
  3.333  17.7675
  3.331  17.6233
  3.329  17.7469
  3.326  17.7572
  3.324  17.6439
  3.322  17.5718
  3.320  17.6439
  3.318  17.5512
  3.316  17.5100
  3.314  17.4482
  3.312  17.3452
  3.309  17.2834
  3.307  17.2731
  3.305  17.2628
  3.303  17.2628
  3.301  17.1598
  3.299  16.9847
  3.297  16.9538
  3.295  16.9744
  3.293  16.8302
  3.291  16.7993
  3.288  16.7581
  3.286  16.7169
  3.284  16.6551
  3.282  16.7169
  3.280  16.6242
  3.278  16.5830
  3.276  16.5727
  3.274  16.4388
  3.272  16.3049
  3.270  16.3667
  3.268  16.3770
  3.266  16.2843
  3.264  16.1813
  3.262  16.2019
  3.259  16.2019
  3.257  16.0783
  3.255  15.9856
  3.253  16.0474
  3.251  16.0165
  3.249  15.9444
  3.247  15.8002
  3.245  15.7487
  3.243  15.7796
  3.241  15.6560
  3.239  15.5221
  3.237  15.5530
  3.235  15.4603
  3.233  15.3058
  3.231  15.2543
  3.229  15.3367
  3.227  15.2337
  3.225  15.1513
  3.223  15.1822
  3.221  15.2646
  3.219  15.2543
  3.217  15.2440
  3.215  15.2028
  3.213  15.0071
  3.211  14.8114
  3.209  14.7805
  3.207  14.6672
  3.205  14.6981
  3.203  14.6260
  3.201  14.5127
  3.199  14.4612
  3.197  14.5024
  3.195  14.4303
  3.193  14.3273
  3.191  14.2552
  3.189  14.1934
  3.187  14.0389
  3.185  13.9977
  3.183  14.0080
  3.182  14.0801
  3.180  14.0183
  3.178  13.9668
  3.176  13.8844
  3.174  13.7917
  3.172  13.6681
  3.170  13.6372
  3.168  13.5651
  3.166  13.5136
  3.164  13.5651
  3.162  13.4930
  3.160  13.4518
  3.158  13.4930
  3.156  13.2664
  3.154  13.1222
  3.152  13.0501
  3.151  13.0089
  3.149  12.9677
  3.147  12.9471
  3.145  12.9265
  3.143  12.9677
  3.141  12.8441
  3.139  12.7102
  3.137  12.6484
  3.135  12.6175
  3.133  12.6072
  3.132  12.5351
  3.130  12.4321
  3.128  12.4321
  3.126  12.2982
  3.124  12.2364
  3.122  12.2879
  3.120  12.2673
  3.118  12.2364
  3.117  12.2158
  3.115  12.0819
  3.113  12.1128
  3.111  12.1025
  3.109  11.9892
  3.107  11.8759
  3.105  11.9583
  3.103  11.8656
  3.102  11.8553
  3.100  11.8965
  3.098  11.8450
  3.096  11.6905
  3.094  11.7523
  3.092  11.7832
  3.091  11.7523
  3.089  11.7626
  3.087  11.7214
  3.085  11.6390
  3.083  11.6493
  3.081  11.5257
  3.079  11.4948
  3.078  11.5669
  3.076  11.7008
  3.074  11.6390
  3.072  11.5257
  3.070  11.5051
  3.069  11.5463
  3.067  11.5051
  3.065  11.4948
  3.063  11.4742
  3.061  11.5566
  3.060  11.5463
  3.058  11.4536
  3.056  11.3300
  3.054  11.4021
  3.052  11.4021
  3.051  11.5051
  3.049  11.4742
  3.047  11.3094
  3.045  11.1961
  3.043  11.2373
  3.042  11.1755
  3.040  11.1755
  3.038  11.2991
  3.036  11.4433
  3.034  11.3197
  3.033  11.1858
  3.031  11.1034
  3.029  11.1343
  3.027  11.1034
  3.026  11.2270
  3.024  11.2064
  3.022  11.1240
  3.020  11.0313
  3.019  10.9489
  3.017  10.9283
  3.015  11.0107
  3.013  11.0931
  3.012  11.1343
  3.010  10.9386
  3.008  10.9180
  3.006  10.8665
  3.005  10.9386
  3.003  10.8871
  3.001  10.8356
  2.999  10.6914
  2.998  10.8150
  2.996  11.0210
  2.994  10.9901
  2.992  10.8665
  2.991  10.7223
  2.989  10.5678
  2.987  10.6502
  2.986  10.5369
  2.984  10.4236
  2.982  10.5369
  2.980  10.7635
  2.979  10.6708
  2.977  10.6193
  2.975  10.4648
  2.974  10.3515
  2.972  10.3927
  2.970  10.5987
  2.968  10.5472
  2.967  10.4545
  2.965  10.3000
  2.963  10.3000
  2.962  10.3515
  2.960  10.4648
  2.958  10.4133
  2.957  10.4339
  2.955  10.4442
  2.953  10.3927
  2.952  10.2588
  2.950  10.3927
  2.948  10.2279
  2.947  10.0940
  2.945  10.1455
  2.943  10.1970
  2.942  10.3206
  2.940  10.4133
  2.938  10.2794
  2.937  10.2073
  2.935  10.1352
  2.933  10.2382
  2.932  10.3103
  2.930  10.2897
  2.928  10.2588
  2.927  10.3412
  2.925  10.3515
  2.923  10.4339
  2.922  10.3824
  2.920  10.2485
  2.918  10.1455
  2.917  10.2382
  2.915  10.3515
  2.913  10.5266
  2.912  10.3618
  2.910  10.2176
  2.909  10.1970
  2.907  10.2691
  2.905  10.2382
  2.904  10.3618
  2.902  10.2485
  2.900  10.1146
  2.899  10.3206
  2.897  10.4648
  2.896  10.2485
  2.894  10.4236
  2.892  10.6605
  2.891  10.6708
  2.889  10.5472
  2.887  10.2897
  2.886  10.3206
  2.884  10.4751
  2.883  10.3515
  2.881  10.4648
  2.879  10.6811
  2.878  10.5987
  2.876  10.6193
  2.875  10.7326
  2.873  10.6708
  2.871  10.7738
  2.870  10.7223
  2.868  10.6708
  2.867  10.6502
  2.865  10.6605
  2.864  10.4854
  2.862  10.6399
  2.860  10.8356
  2.859  10.6811
  2.857  10.4854
  2.856  10.5678
  2.854  10.4133
  2.853  10.4339
  2.851  10.6193
  2.849  10.8562
  2.848  10.8459
  2.846  10.6193
  2.845  10.4854
  2.843  10.6708
  2.842  10.6296
  2.840  10.6914
  2.838  10.6193
  2.837  10.4957
  2.835  10.4648
  2.834  10.5163
  2.832  10.3000
  2.831  10.3103
  2.829  10.2176
  2.828  10.2382
  2.826  10.4854
  2.825  10.3000
  2.823   9.8571
  2.821   9.8777
  2.820   9.8571
  2.818   9.8468
  2.817   9.7953
  2.815   9.7541
  2.814   9.7541
  2.812   9.6305
  2.811   9.2391
  2.809   9.3112
  2.808   9.3215
  2.806   9.0640
  2.805   8.7241
  2.803   8.6726
  2.802   8.6623
  2.800   8.3842
  2.799   8.1988
  2.797   8.4975
  2.796   8.4254
  2.794   7.9928
  2.793   7.6323
  2.791   7.6014
  2.790   7.5911
  2.788   7.6838
  2.787   7.6735
  2.785   7.5911
  2.784   7.0246
  2.782   6.8186
  2.781   6.8083
  2.779   6.6435
  2.778   6.4272
  2.776   6.6126
  2.775   6.7259
  2.773   6.5920
  2.772   6.4478
  2.770   6.3551
  2.769   6.3345
  2.767   6.3139
  2.766   5.9122
  2.764   5.4178
  2.763   5.2324
  2.761   5.4384
  2.760   5.5620
  2.758   5.7268
  2.757   5.6650
  2.756   5.7474
  2.754   5.8504
  2.753   5.9740
  2.751   6.0770
  2.750   6.3963
  2.748   6.5611
  2.747   6.6641
  2.745   6.6229
  2.744   6.6023
  2.742   6.7980
  2.741   7.0143
  2.740   6.9628
  2.738   6.9422
  2.737   7.0040
  2.735   6.9731
  2.734   6.9525
  2.732   7.0967
  2.731   7.1173
  2.729   7.1585
  2.728   7.2821
  2.727   7.4675
  2.725   7.6014
  2.724   7.3954
  2.722   7.3748
  2.721   7.7868
  2.719   8.0031
  2.718   8.1267
  2.717   8.2503
  2.715   8.2400
  2.714   8.1473
  2.712   8.2400
  2.711   8.2812
  2.709   7.9104
  2.708   7.4263
  2.707   7.1276
  2.705   6.9525
  2.704   6.9010
  2.702   6.8907
  2.701   7.1276
  2.700   7.5602
  2.698   8.1679
  2.697   8.7138
  2.695   9.4657
  2.694  10.4133
  2.693  11.5566
  2.691  12.8029
  2.690  14.0286
  2.688  15.0689
  2.687  16.2740
  2.686  17.4894
  2.684  18.6739
  2.683  19.4464
  2.681  19.9408
  2.680  20.7648
  2.679  21.7948
  2.677  22.2583
  2.676  22.9175
  2.675  23.8136
  2.673  24.4110
  2.672  24.6170
  2.670  24.8127
  2.669  25.5749
  2.668  26.4813
  2.666  26.7903
  2.665  27.2744
  2.664  27.7997
  2.662  28.4074
  2.661  28.6443
  2.659  28.8503
  2.658  29.2005
  2.657  29.5198
  2.655  29.7361
  2.654  30.2511
  2.653  30.3953
  2.651  30.7352
  2.650  31.0442
  2.649  31.3017
  2.647  31.5283
  2.646  31.7034
  2.645  31.8270
  2.643  32.2802
  2.642  32.4553
  2.640  32.3317
  2.639  32.1360
  2.638  32.3317
  2.636  32.6819
  2.635  33.1042
  2.634  33.4441
  2.632  33.5162
  2.631  33.2072
  2.630  33.3102
  2.628  33.7634
  2.627  34.0415
  2.626  34.2578
  2.624  34.4947
  2.623  34.3505
  2.622  34.2990
  2.620  34.2372
  2.619  34.6492
  2.618  34.6595
  2.617  34.5256
  2.615  34.5771
  2.614  34.7110
  2.613  34.8964
  2.611  35.1539
  2.610  34.9994
  2.609  35.0818
  2.607  35.2157
  2.606  35.0303
  2.605  35.0818
  2.603  35.4423
  2.602  35.4320
  2.601  35.5144
  2.599  35.4320
  2.598  35.4320
  2.597  35.4732
  2.596  35.0612
  2.594  34.8552
  2.593  35.3290
  2.592  35.7204
  2.590  36.0397
  2.589  36.0809
  2.588  36.1530
  2.586  36.3075
  2.585  36.4105
  2.584  36.3075
  2.583  36.1942
  2.581  36.0706
  2.580  36.2869
  2.579  36.6474
  2.577  36.7813
  2.576  36.6577
  2.575  36.6886
  2.574  36.7298
  2.572  36.9564
  2.571  37.0285
  2.570  37.1109
  2.569  36.7607
  2.567  37.0285
  2.566  37.8113
  2.565  37.9040
  2.563  37.5023
  2.562  37.4199
  2.561  37.1109
  2.560  37.1212
  2.558  37.4920
  2.557  37.7083
  2.556  37.6053
  2.555  37.7289
  2.553  37.8216
  2.552  37.9349
  2.551  37.8525
  2.550  37.9349
  2.548  37.7701
  2.547  37.6259
  2.546  37.4714
  2.545  37.6877
  2.543  37.9658
  2.542  38.0894
  2.541  38.1512
  2.540  38.1512
  2.538  38.1100
  2.537  38.2851
  2.536  38.2336
  2.535  38.0379
  2.533  38.0379
  2.532  38.5632
  2.531  38.8001
  2.530  38.5014
  2.528  38.4087
  2.527  38.5426
  2.526  38.6971
  2.525  38.8619
  2.524  38.7177
  2.522  38.7795
  2.521  38.9134
  2.520  38.9958
  2.519  38.9546
  2.517  39.1400
  2.516  39.0885
  2.515  38.9237
  2.514  39.1194
  2.513  39.4593
  2.511  39.2018
  2.510  38.9443
  2.509  39.0061
  2.508  39.1091
  2.506  39.1400
  2.505  39.2018
  2.504  39.4799
  2.503  39.8816
  2.502  39.8404
  2.500  39.5417
  2.497  39.5417
  2.493  39.3417
  2.489  39.8417
  2.485  40.0417
  2.481  40.2417
  2.477  40.1417
  2.473  40.4417
  2.469  40.7417
  2.465  40.9417
  2.461  41.2417
  2.457  41.4417
  2.453  42.0417
  2.449  42.2417
  2.445  42.8417
  2.441  43.0417
  2.437  43.4417
  2.433  44.1417
  2.429  44.3417
  2.425  45.2417
  2.421  45.9417
  2.417  46.4417
  2.413  46.5417
  2.409  46.9417
  2.405  47.2417
  2.401  47.8417
  2.397  48.3417
  2.393  48.1417
  2.389  48.4417
  2.385  48.7417
  2.381  48.9417
  2.377  48.9417
  2.373  48.7417
  2.369  49.0417
  2.365  49.1417
  2.361  49.1417
  2.357  49.6417
  2.353  49.6417
  2.349  50.0417
  2.345  50.6417
  2.341  51.1417
  2.337  51.4417
  2.333  51.8417
  2.329  52.2417
  2.325  52.5417
  2.321  52.9417
  2.317  53.4417
  2.313  54.2417
  2.309  54.5417
  2.305  54.8417
  2.301  54.2417
  2.297  56.7417
  2.293  56.1417
  2.289  56.6417
  2.285  57.4417
  2.281  58.6417
  2.277  59.4417
  2.273  59.4417
  2.269  59.9417
  2.265  59.7417
  2.261  59.5417
  2.257  59.0417
  2.253  58.8417
  2.249  58.5417
  2.245  58.1417
  2.241  57.3417
  2.237  56.4417
  2.233  56.1417
  2.229  55.3417
  2.225  54.6417
  2.221  53.5417
  2.217  52.5417
  2.213  51.8417
  2.209  51.1417
  2.205  50.9417
  2.201  51.2417
  2.197  51.9417
  2.193  52.7417
  2.189  53.6417
  2.185  54.6417
  2.181  55.9417
  2.177  56.8417
  2.173  57.5417
  2.169  58.3417
  2.165  59.0417
  2.161  59.5417
  2.157  60.1417
  2.153  61.1417
  2.149  61.9417
  2.145  62.8417
  2.141  64.1417
  2.137  65.6417
  2.133  66.2417
  2.129  66.6417
  2.125  66.8417
  2.121  67.4417
  2.117  68.3417
  2.113  68.6417
  2.109  69.4417
  2.105  69.3417
  2.101  69.6417
  2.097  69.7417
  2.093  69.9417
  2.089  70.4417
  2.085  70.4417
  2.081  70.2417
  2.077  70.0417
  2.073  69.9417
  2.069  69.7417
  2.065  69.3417
  2.061  69.4417
  2.057  68.9417
  2.053  69.0417
  2.049  69.1417
  2.045  68.5417
  2.041  68.4417
  2.037  67.9417
  2.033  67.8417
  2.029  67.7417
  2.025  66.8417
  2.021  66.2417
  2.017  65.7417
  2.013  65.5417
  2.009  64.7417
  2.005  64.0417
  2.001  63.5417
  1.997  63.0417
  1.993  62.4417
  1.989  61.9417
  1.985  61.3417
  1.981  60.7417
  1.977  60.1417
  1.973  59.6417
  1.969  59.2417
  1.965  58.6417
  1.961  57.9417
  1.957  57.2417
  1.953  56.7417
  1.949  56.1417
  1.945  55.6417
  1.941  55.1417
  1.937  54.7417
  1.933  54.2417
  1.929  53.8417
  1.925  52.9417
  1.921  51.9417
  1.917  51.4417
  1.913  51.1417
  1.909  50.9417
  1.905  51.3417
  1.901  52.3417
  1.897  54.0417
  1.893  56.7417
  1.889  59.4417
  1.885  62.3417
  1.881  66.1417
  1.877  69.6417
  1.873  71.8417
  1.869  72.9417
  1.865  74.1417
  1.861  75.9417
  1.857  77.8417
  1.853  79.4417
  1.849  80.4417
  1.845  80.7417
  1.841  81.0417
  1.837  81.1417
  1.833  80.7417
  1.829  81.3417
  1.825  81.5417
  1.821  81.5417
  1.817  81.7417
  1.813  81.7417
  1.809  81.7417
  1.805  81.8417
  1.801  82.0417
  1.797  81.8417
  1.793  81.8417
  1.789  82.1417
  1.785  82.3417
  1.781  82.7417
  1.777  82.7417
  1.773  82.8417
  1.769  82.9417
  1.765  83.3417
  1.761  83.4417
  1.757  83.2417
  1.753  83.3417
  1.749  83.3417
  1.745  83.3417
  1.741  83.8417
  1.737  84.0417
  1.733  84.4417
  1.729  84.4417
  1.725  84.4417
  1.721  84.3417
  1.717  84.6417
  1.713  84.9417
  1.709  84.8417
  1.705  84.9417
  1.701  85.4417
  1.697  85.1417
  1.693  85.0417
  1.689  85.3417
  1.685  85.5417
  1.681  85.7417
  1.677  85.4417
  1.673  85.3417
  1.669  85.1417
  1.665  85.4417
  1.661  85.7417
  1.657  85.5417
  1.653  85.3417
  1.649  85.4417
  1.645  85.6417
  1.641  85.5417
  1.637  85.4417
  1.633  85.5417
  1.629  85.3417
  1.625  85.4417
  1.621  85.4417
  1.617  85.5417
  1.613  84.8417
  1.609  84.5417
  1.605  84.4417
  1.601  84.3417
  1.597  84.3417
  1.593  84.6417
  1.589  84.5417
  1.585  84.4417
  1.581  84.5417
  1.577  84.2417
  1.573  84.3417
  1.569  84.3417
  1.565  84.6417
  1.561  84.0417
  1.557  83.7417
  1.553  83.4417
  1.549  83.2417
  1.545  83.1417
  1.541  83.1417
  1.537  83.1417
  1.533  82.9417
  1.529  82.3417
  1.525  81.8417
  1.521  81.6417
  1.517  81.2417
  1.513  81.2417
  1.509  80.7417
  1.505  80.5417
  1.501  79.6417
  1.497  78.8417
  1.493  78.5417
  1.489  78.3417
  1.485  78.3417
  1.481  77.9417
  1.477  77.6417
  1.473  76.8417
  1.469  76.5417
  1.465  76.0417
  1.461  75.6417
  1.457  75.2417
  1.453  75.1417
  1.449  75.2417
  1.445  74.9417
  1.441  74.1417
  1.437  73.0417
  1.433  72.2417
  1.429  71.0417
  1.425  69.4417
  1.421  67.9417
  1.417  65.8417
  1.413  63.0417
  1.409  61.3417
  1.405  61.3417
  1.401  62.2417
  1.397  64.7417
  1.393  66.4417
  1.389  67.4417
  1.385  69.6417
  1.381  71.5417
  1.377  72.4417
  1.373  75.5417
  1.369  79.3417
  1.365  80.6417
  1.361  80.1417
  1.357  80.4417
  1.353  81.3417
  1.349  82.0417
  1.345  83.1417
  1.341  83.7417
  1.337  84.3417
  1.333  84.0417
  1.329  84.5417
  1.325  84.4417
  1.321  84.6417
  1.317  84.9417
  1.313  84.9417
  1.309  85.1417
  1.305  85.3417
  1.301  85.1417
  1.297  85.3417
  1.293  85.5417
  1.289  85.6417
  1.285  85.6417
  1.281  85.4417
  1.277  85.3417
  1.273  85.0417
  1.269  84.9417
  1.265  84.8417
  1.261  84.3417
  1.257  84.0417
  1.253  83.7417
  1.249  83.3417
  1.245  82.6417
  1.241  83.3417
  1.237  83.7417
  1.233  83.8417
  1.229  83.4417
  1.225  83.3417
  1.221  83.3417
  1.217  83.2417
  1.213  83.1417
  1.209  82.8417
  1.205  82.4417
  1.201  82.3417
  1.197  82.2417
  1.193  82.1417
  1.189  81.8417
  1.185  81.8417
  1.181  81.8417
  1.177  81.8417
  1.173  82.1417
  1.169  82.0417
  1.165  82.0417
  1.161  81.8417
  1.157  81.6417
  1.153  81.2417
  1.149  80.9417
  1.145  81.1417
  1.141  81.6417
  1.137  81.3417
  1.133  81.1417
  1.129  80.9417
  1.125  80.9417
  1.121  81.0417
  1.117  80.2417
  1.113  79.6417
  1.109  79.9417
  1.105  80.2417
  1.101  80.4417
  1.097  80.4417
  1.093  80.2417
  1.089  80.2417
  1.085  79.8417
  1.081  79.9417
  1.077  79.8417
  1.073  79.6417
  1.069  79.8417
  1.065  79.8417
  1.061  79.9417
  1.057  80.1417
  1.053  79.8417
  1.049  79.6417
  1.045  79.5417
  1.041  79.5417
  1.037  79.3417
  1.033  80.0417
  1.029  79.9417
  1.025  79.5417
  1.021  79.5417
  1.017  79.1417
  1.013  78.7417
  1.009  78.9417
  1.005  78.9417
  1.001  79.0417
  0.997  78.8417
  0.993  79.3417
  0.989  79.1417
  0.985  78.7417
  0.981  78.2417
  0.977  78.2417
  0.973  78.2417
  0.969  77.7417
  0.965  77.8417
  0.961  77.8417
  0.957  77.4417
  0.953  77.7417
  0.949  77.3417
  0.945  77.4417
  0.941  77.2417
  0.937  77.1417
  0.933  77.2417
  0.929  76.9417
  0.925  76.8417
  0.921  76.8417
  0.917  76.8417
  0.913  76.6417
  0.909  76.6417
  0.905  76.3417
  0.901  76.3417
  0.897  76.3417
  0.893  76.0417
  0.889  75.7417
  0.885  75.5417
  0.881  75.4417
  0.877  75.7417
  0.873  75.2417
  0.869  75.5417
  0.865  75.2417
  0.861  74.9417
  0.857  74.8417
  0.853  74.9417
  0.849  74.6417
  0.845  74.6417
  0.841  74.6417
  0.837  74.9417
  0.833  74.6417
  0.829  74.6417
  0.825  74.8417
  0.821  74.1417
  0.817  74.6417
  0.813  74.6417
  0.809  74.5417
  0.805  74.4417
  0.804  74.8417
  0.803  74.8417
  0.802  74.1417
  0.801  74.3417
  0.800  74.0417
  0.799  73.9417
  0.798  73.8417
  0.797  73.4417
  0.796  74.0417
  0.795  73.9417
  0.794  74.3417
  0.793  73.5417
  0.792  74.0417
  0.791  73.9417
  0.790  74.0417
  0.789  73.9417
  0.788  73.9417
  0.787  73.7417
  0.786  73.5417
  0.785  73.5417
  0.784  73.3417
  0.783  73.4417
  0.782  73.4417
  0.781  73.3417
  0.780  73.3417
  0.779  73.3417
  0.778  73.4417
  0.777  73.7417
  0.776  73.4417
  0.775  73.3417
  0.774  73.0417
  0.773  73.3417
  0.772  73.3417
  0.771  73.2417
  0.770  73.0417
  0.769  72.9417
  0.768  72.4417
  0.767  72.4417
  0.766  72.6417
  0.765  72.8417
  0.764  72.9417
  0.763  72.7417
  0.762  72.2417
  0.761  72.2417
  0.760  72.3417
  0.759  72.2417
  0.758  72.1417
  0.757  72.2417
  0.756  72.2417
  0.755  71.8417
  0.754  71.5417
  0.753  71.8417
  0.752  72.1417
  0.751  71.8417
  0.750  71.1417
  0.749  70.7417
  0.748  71.3417
  0.747  71.1417
  0.746  71.1417
  0.745  71.0417
  0.744  71.0417
  0.743  71.0417
  0.742  71.0417
  0.741  71.1417
  0.740  70.7417
  0.739  71.0417
  0.738  71.1417
  0.737  71.2417
  0.736  70.8417
  0.735  70.8417
  0.734  70.2417
  0.733  70.0417
  0.732  69.5417
  0.731  70.0417
  0.730  70.5417
  0.729  70.5417
  0.728  70.4417
  0.727  69.9417
  0.726  70.0417
  0.725  69.6417
  0.724  69.4417
  0.723  69.4417
  0.722  69.5417
  0.721  69.6417
  0.720  69.0417
  0.719  69.0417
  0.718  69.1417
  0.717  68.5417
  0.716  68.8417
  0.715  68.5417
  0.714  68.6417
  0.713  68.3417
  0.712  68.8417
  0.711  68.9417
  0.710  68.2417
  0.709  67.1417
  0.708  66.8417
  0.707  67.2417
  0.706  67.3417
  0.705  67.4417
  0.704  67.8417
  0.703  65.6417
  0.702  65.6417
  0.701  66.0417
  0.700  66.2417
  0.699  66.1417
  0.698  65.7417
  0.697  65.6417
  0.696  65.2417
  0.695  65.8417
  0.694  65.6417
  0.693  64.7417
  0.692  64.6417
  0.691  64.5417
  0.690  64.1417
  0.689  64.1417
  0.688  64.1417
  0.687  64.1417
  0.686  63.9417
  0.685  64.0417
  0.684  63.9417
  0.683  63.9417
  0.682  63.6417
  0.681  63.2417
  0.680  63.3417
  0.679  63.6417
  0.678  63.6417
  0.677  63.6417
  0.676  62.8417
  0.675  62.7417
  0.674  62.5417
  0.673  62.5417
  0.672  62.4417
  0.671  62.2417
  0.670  61.7417
  0.669  61.7417
  0.668  62.1417
  0.667  61.8417
  0.666  61.6417
  0.665  61.3417
  0.664  61.2417
  0.663  60.8417
  0.662  61.0417
  0.661  60.8417
  0.660  60.7417
  0.659  60.7417
  0.658  60.2417
  0.657  60.2417
  0.656  59.7417
  0.655  60.0417
  0.654  59.6417
  0.653  59.4417
  0.652  59.4417
  0.651  59.1417
  0.650  58.8417
  0.649  58.9417
  0.648  58.8417
  0.647  58.4417
  0.646  58.3417
  0.645  58.5417
  0.644  58.4417
  0.643  58.0417
  0.642  57.9417
  0.641  57.8417
  0.640  57.7417
  0.639  57.3417
  0.638  57.0417
  0.637  57.4417
  0.636  56.7417
  0.635  56.4417
  0.634  56.6417
  0.633  56.3417
  0.632  55.8417
  0.631  55.7417
  0.630  55.5417
  0.629  55.3417
  0.628  55.2417
  0.627  55.2417
  0.626  55.1417
  0.625  54.8417
  0.624  54.7417
  0.623  54.6417
  0.622  54.5417
  0.621  54.5417
  0.620  54.4417
  0.619  54.5417
  0.618  54.2417
  0.617  54.0417
  0.616  53.5417
  0.615  53.3417
  0.614  53.1417
  0.613  52.8417
  0.612  52.7417
  0.611  52.7417
  0.610  52.3417
  0.609  52.2417
  0.608  51.9417
  0.607  51.8417
  0.606  51.6417
  0.605  51.7417
  0.604  51.6417
  0.603  51.4417
  0.602  51.4417
  0.601  51.2417
  0.600  51.4417
  0.599  51.3417
  0.598  50.7417
  0.597  50.3417
  0.596  50.5417
  0.595  50.0417
  0.594  50.0417
  0.593  50.1417
  0.592  50.1417
  0.591  49.8417
  0.590  49.7417
  0.589  49.7417
  0.588  49.7417
  0.587  49.4417
  0.586  49.1417
  0.585  49.5417
  0.584  49.4417
  0.583  49.4417
  0.582  49.0417
  0.581  48.6417
  0.580  48.4417
  0.579  48.3417
  0.578  48.0417
  0.577  47.5417
  0.576  47.8417
  0.575  47.9417
  0.574  48.0417
  0.573  48.0417
  0.572  48.0417
  0.571  47.9417
  0.570  47.8417
  0.569  47.4417
  0.568  47.2417
  0.567  47.0417
  0.566  46.8417
  0.565  46.4417
  0.564  46.3417
  0.563  45.9417
  0.562  49.1417
  0.561  49.2417
  0.560  48.7417
  0.559  48.5417
  0.558  48.4417
  0.557  48.1417
  0.556  47.9417
  0.555  47.6417
  0.554  47.3417
  0.553  47.2417
  0.552  46.8417
  0.551  47.2417
  0.550  46.9417
  0.549  46.8417
  0.548  46.1417
  0.547  45.8417
  0.546  45.8417
  0.545  45.7417
  0.544  45.7417
  0.543  45.6417
  0.542  45.3417
  0.541  45.1417
  0.540  44.8417
  0.539  44.5417
  0.538  44.1417
  0.537  44.0417
  0.536  44.1417
  0.535  43.6417
  0.534  43.9417
  0.533  44.0417
  0.532  43.6417
  0.531  43.4417
  0.530  43.0417
  0.529  43.1417
  0.528  42.8417
  0.527  42.4417
  0.526  42.8417
  0.525  42.8417
  0.524  42.5417
  0.523  42.2417
  0.522  42.3417
  0.521  42.0417
  0.520  41.5417
  0.519  41.5417
  0.518  41.3417
  0.517  41.3417
  0.516  41.3417
  0.515  41.1417
  0.514  40.6417
  0.513  40.4417
  0.512  40.7417
  0.511  40.9417
  0.510  40.6417
  0.509  40.2417
  0.508  40.1417
  0.507  40.0417
  0.506  39.7417
  0.505  39.6417
  0.504  39.5417
  0.503  39.6417
  0.502  39.2417
  0.501  39.3417
  0.500  39.2417
  0.499  38.4417
  0.498  38.4417
  0.497  38.7417
  0.496  38.5417
  0.495  38.4417
  0.494  37.9417
  0.493  37.9417
  0.492  38.0417
  0.491  37.6417
  0.490  37.8417
  0.489  37.3417
  0.488  37.3417
  0.487  37.5417
  0.486  37.0417
  0.485  36.8417
  0.484  36.4417
  0.483  36.5417
  0.482  36.4417
  0.481  36.3417
  0.480  36.2417
  0.479  36.3417
  0.478  36.3417
  0.477  35.7417
  0.476  35.9417
  0.475  35.7417
  0.474  35.3417
  0.473  35.6417
  0.472  35.6417
  0.471  35.6417
  0.470  35.4417
  0.469  35.7417
  0.468  35.3417
  0.467  35.6417
  0.466  35.3417
  0.465  35.2417
  0.464  34.5417
  0.463  31.8417
  0.462  31.5417
  0.461  31.4417
  0.460  31.0417
  0.459  31.0417
  0.458  31.0417
  0.457  30.7417
  0.456  30.3417
  0.455  30.2417
  0.454  29.8417
  0.453  30.3417
  0.452  30.2417
  0.451  30.1417
  0.450  29.8417
  0.449  29.7417
  0.448  29.8417
  0.447  29.6417
  0.446  29.3417
  0.445  29.1417
  0.444  29.1417
  0.443  29.1417
  0.442  28.6417
  0.441  28.8417
  0.440  29.0417
  0.439  28.8417
  0.438  28.7417
  0.437  28.6417
  0.436  28.6417
  0.435  28.4417
  0.434  28.1417
  0.433  27.9417
  0.432  28.1417
  0.431  27.9417
  0.430  27.9417
  0.429  27.9417
  0.428  27.7417
  0.427  27.6417
  0.426  27.6417
  0.425  27.3417
  0.424  27.3417
  0.423  26.9417
  0.422  26.9417
  0.421  26.8417
  0.420  26.9417
  0.419  26.8417
  0.418  26.6417
  0.417  26.6417
  0.416  26.5417
  0.415  26.3417
  0.414  26.0417
  0.413  25.9417
  0.412  26.2417
  0.411  26.0417
  0.410  25.8417
  0.409  25.7417
  0.408  25.5417
  0.407  25.7417
  0.406  25.3417
  0.405  25.3417
