Name: Basalt
Type: Rock
Class: Igneous
Subclass: Mafic
Particle Size: Whole rock chips
Sample No.: Me13a
Owner: Lawrence Rowan, USGS Reston
Wavelength range: 0.40 - 14.05 um
Origin: Kerak Plateau, Middle East

Description: Basalt, fresh surface





Measurement: Directional Hemispherical Reflectance
First Column: X
Second Column: Y
X Units: Wavelength (micrometers)
Y Units: Reflectance (percent)
First X Value: 14.05105
Last X Value: 0.40000
Number of X Values: 2231
Additional Information: me13aa.txt

 14.051   3.3269
 14.013   3.2651
 13.975   3.2239
 13.938   3.2857
 13.900   3.4608
 13.863   3.4402
 13.826   3.5020
 13.790   3.4814
 13.753   3.5741
 13.717   3.4814
 13.680   3.4814
 13.644   3.4608
 13.609   3.5226
 13.573   3.4711
 13.538   3.5741
 13.502   3.5741
 13.467   3.6462
 13.432   3.5947
 13.398   3.6359
 13.363   3.6153
 13.329   3.7080
 13.295   3.6977
 13.261   3.7698
 13.227   3.7595
 13.193   3.7698
 13.160   3.6771
 13.126   3.7801
 13.093   3.8419
 13.060   3.8522
 13.027   3.8007
 12.995   3.8522
 12.962   3.8934
 12.930   3.9243
 12.898   3.9037
 12.866   3.9449
 12.834   3.9243
 12.802   3.9552
 12.771   3.9037
 12.739   3.9758
 12.708   3.9449
 12.677   3.9552
 12.646   3.8934
 12.616   3.9037
 12.585   3.9655
 12.554   4.1097
 12.524   4.0994
 12.494   4.1509
 12.464   4.2024
 12.434   4.3260
 12.404   4.2848
 12.375   4.3569
 12.345   4.3569
 12.316   4.4908
 12.287   4.5423
 12.258   4.6865
 12.229   4.8204
 12.200   5.0161
 12.171   5.0985
 12.143   5.2015
 12.115   5.2427
 12.086   5.3560
 12.058   5.4281
 12.030   5.6135
 12.002   5.7577
 11.975   5.8401
 11.947   5.8195
 11.920   5.9122
 11.892   5.9225
 11.865   6.0049
 11.838   6.0667
 11.811   6.2315
 11.784   6.2727
 11.757   6.4478
 11.731   6.5817
 11.704   6.7465
 11.678   6.8289
 11.652   6.9937
 11.626   7.0864
 11.600   7.2512
 11.574   7.3954
 11.548   7.6323
 11.522   7.8383
 11.497   8.0752
 11.471   8.2400
 11.446   8.5284
 11.421   8.7447
 11.396   8.9198
 11.371   9.0228
 11.346   9.2597
 11.321   9.4657
 11.297   9.6820
 11.272   9.7850
 11.248   9.8777
 11.223   9.8983
 11.199   9.9601
 11.175   9.9910
 11.151  10.1661
 11.127  10.2897
 11.103  10.3824
 11.079  10.4133
 11.056  10.5781
 11.032  10.6811
 11.009  10.8150
 10.985  10.8665
 10.962  10.9592
 10.939  11.0416
 10.916  11.1240
 10.893  11.1652
 10.870  11.3300
 10.848  11.4124
 10.825  11.4742
 10.802  11.4330
 10.780  11.4845
 10.758  11.5154
 10.735  11.5566
 10.713  11.4845
 10.691  11.4845
 10.669  11.4639
 10.647  11.5360
 10.625  11.5566
 10.604  11.4536
 10.582  11.3403
 10.560  11.3094
 10.539  11.2373
 10.518  11.2373
 10.496  11.2167
 10.475  11.2373
 10.454  11.1961
 10.433  11.2373
 10.412  11.2579
 10.391  11.3506
 10.370  11.4227
 10.350  11.4742
 10.329  11.5360
 10.309  11.6081
 10.288  11.5978
 10.268  11.5772
 10.247  11.5978
 10.227  11.6596
 10.207  11.6287
 10.187  11.6699
 10.167  11.5772
 10.147  11.5772
 10.127  11.6493
 10.108  11.7008
 10.088  11.7729
 10.068  11.9068
 10.049  11.9789
 10.029  12.0716
 10.010  12.1025
  9.991  12.1746
  9.972  12.2158
  9.952  12.3085
  9.933  12.4218
  9.914  12.5454
  9.895  12.6072
  9.877  12.6072
  9.858  12.6175
  9.839  12.6587
  9.821  12.6175
  9.802  12.6484
  9.783  12.7514
  9.765  12.8235
  9.747  12.6690
  9.728  12.6690
  9.710  12.8235
  9.692  12.9265
  9.674  12.8750
  9.656  12.7926
  9.638  12.6896
  9.620  12.6793
  9.602  12.6587
  9.585  12.6278
  9.567  12.5042
  9.549  12.4218
  9.532  12.2776
  9.514  12.2261
  9.497  12.1952
  9.479  12.1025
  9.462  11.8553
  9.445  11.6905
  9.428  11.5257
  9.411  11.4227
  9.394  11.1961
  9.377  10.9283
  9.360  10.6811
  9.343  10.4957
  9.326  10.2588
  9.309  10.1352
  9.293   9.9601
  9.276   9.7953
  9.259   9.6305
  9.243   9.4966
  9.226   9.2906
  9.210   9.3009
  9.194   9.2494
  9.178   9.1979
  9.161   9.1464
  9.145   9.1361
  9.129   9.1258
  9.113   9.1464
  9.097   9.1361
  9.081   9.2494
  9.065   9.3215
  9.049   9.4142
  9.034   9.4245
  9.018   9.4863
  9.002   9.4039
  8.987   9.3627
  8.971   9.2803
  8.956   9.3318
  8.940   9.3627
  8.925   9.3936
  8.909   9.4245
  8.894   9.4554
  8.879   9.3112
  8.864   9.1979
  8.849   9.1464
  8.834   9.1876
  8.819   9.1258
  8.804   9.0949
  8.789   9.0743
  8.774   9.1773
  8.759   9.1155
  8.744   9.0331
  8.730   8.9610
  8.715   8.9095
  8.700   8.8477
  8.686   8.8683
  8.671   8.8580
  8.657   8.8168
  8.642   8.7653
  8.628   8.7344
  8.614   8.6417
  8.599   8.5799
  8.585   8.4666
  8.571   8.4048
  8.557   8.4254
  8.543   8.4666
  8.529   8.3842
  8.515   8.3018
  8.501   8.1885
  8.487   8.1267
  8.473   8.0958
  8.459   8.0752
  8.445   7.9104
  8.431   7.8383
  8.418   7.8074
  8.404   7.7559
  8.391   7.5602
  8.377   7.4675
  8.363   7.3645
  8.350   7.2100
  8.337   6.9319
  8.323   6.7259
  8.310   6.5405
  8.297   6.3345
  8.283   6.0255
  8.270   5.7165
  8.257   5.3457
  8.244   4.9852
  8.231   4.5938
  8.218   4.2848
  8.205   3.9243
  8.192   3.6153
  8.179   3.3475
  8.166   3.1415
  8.153   2.9355
  8.140   2.8325
  8.128   2.6986
  8.115   2.6162
  8.102   2.4617
  8.090   2.3793
  8.077   2.2454
  8.064   2.1733
  8.052   2.1630
  8.039   2.1527
  8.027   2.0806
  8.015   2.0497
  8.002   2.0085
  7.990   2.0085
  7.978   1.9364
  7.965   1.8746
  7.953   1.8437
  7.941   1.9055
  7.929   1.8849
  7.917   1.8746
  7.905   1.8025
  7.893   1.8128
  7.881   1.7716
  7.869   1.7716
  7.857   1.7819
  7.845   1.8025
  7.833   1.7922
  7.821   1.7922
  7.809   1.7819
  7.798   1.7613
  7.786   1.7613
  7.774   1.7819
  7.763   1.7922
  7.751   1.8231
  7.739   1.8025
  7.728   1.8437
  7.716   1.8643
  7.705   1.8128
  7.694   1.7716
  7.682   1.8437
  7.671   1.8540
  7.659   1.8952
  7.648   1.9673
  7.637   1.9982
  7.626   1.9261
  7.614   1.9261
  7.603   1.9364
  7.592   1.9261
  7.581   1.8643
  7.570   1.8952
  7.559   1.8746
  7.548   1.9158
  7.537   1.9776
  7.526   1.9570
  7.515   1.9364
  7.504   1.9776
  7.493   1.9982
  7.483   1.9879
  7.472   1.9776
  7.461   2.0394
  7.450   2.0188
  7.440   2.0806
  7.429   2.0909
  7.418   2.0909
  7.408   2.0600
  7.397   2.0806
  7.387   2.1012
  7.376   2.1115
  7.366   2.1115
  7.355   2.1836
  7.345   2.1939
  7.334   2.1836
  7.324   2.1836
  7.314   2.1836
  7.303   2.1630
  7.293   2.1939
  7.283   2.2351
  7.273   2.2763
  7.263   2.3072
  7.252   2.3587
  7.242   2.2969
  7.232   2.3072
  7.222   2.3690
  7.212   2.4102
  7.202   2.4411
  7.192   2.4823
  7.182   2.4720
  7.172   2.4926
  7.162   2.5029
  7.152   2.5750
  7.143   2.6471
  7.133   2.6265
  7.123   2.6059
  7.113   2.6677
  7.103   2.6883
  7.094   2.7501
  7.084   2.7295
  7.074   2.7810
  7.065   2.8222
  7.055   2.8325
  7.046   2.8222
  7.036   2.8531
  7.026   2.8737
  7.017   2.8428
  7.007   2.8634
  6.998   2.8943
  6.989   2.8840
  6.979   2.9561
  6.970   2.9767
  6.960   2.9973
  6.951   3.0076
  6.942   3.0694
  6.932   3.0797
  6.923   3.0694
  6.914   3.0591
  6.905   3.0694
  6.896   3.0282
  6.886   2.9767
  6.877   2.9767
  6.868   3.0797
  6.859   3.0900
  6.850   3.0694
  6.841   3.0282
  6.832   3.1209
  6.823   3.1930
  6.814   3.1621
  6.805   3.1209
  6.796   3.1724
  6.787   3.1518
  6.778   3.2136
  6.770   3.2754
  6.761   3.3166
  6.752   3.1724
  6.743   3.1003
  6.734   3.1415
  6.726   3.2033
  6.717   3.2754
  6.708   3.3372
  6.700   3.3578
  6.691   3.3784
  6.682   3.3372
  6.674   3.3475
  6.665   3.3063
  6.657   3.3166
  6.648   3.3372
  6.640   3.4505
  6.631   3.5020
  6.623   3.4402
  6.614   3.3887
  6.606   3.3578
  6.597   3.3578
  6.589   3.3990
  6.581   3.4299
  6.572   3.4299
  6.564   3.4299
  6.556   3.4814
  6.547   3.4608
  6.539   3.4196
  6.531   3.4093
  6.523   3.4196
  6.514   3.4505
  6.506   3.4505
  6.498   3.4299
  6.490   3.4402
  6.482   3.4299
  6.474   3.3681
  6.466   3.3063
  6.458   3.2960
  6.450   3.3372
  6.442   3.2857
  6.434   3.2033
  6.426   3.1827
  6.418   3.1415
  6.410   3.0900
  6.402   3.0591
  6.394   3.0694
  6.386   3.0076
  6.378   2.9561
  6.370   2.9664
  6.363   2.9870
  6.355   2.8840
  6.347   2.8222
  6.339   2.8428
  6.332   2.8325
  6.324   2.7501
  6.316   2.6883
  6.308   2.6471
  6.301   2.6986
  6.293   2.7707
  6.286   2.7913
  6.278   2.7604
  6.270   2.7913
  6.263   2.7810
  6.255   2.7192
  6.248   2.6883
  6.240   2.6677
  6.233   2.6368
  6.225   2.6677
  6.218   2.7295
  6.210   2.6986
  6.203   2.6574
  6.195   2.6677
  6.188   2.6368
  6.181   2.6677
  6.173   2.6677
  6.166   2.6265
  6.159   2.5853
  6.151   2.5956
  6.144   2.6368
  6.137   2.6265
  6.130   2.5956
  6.122   2.6059
  6.115   2.5647
  6.108   2.5441
  6.101   2.5647
  6.094   2.5647
  6.086   2.5235
  6.079   2.5544
  6.072   2.5750
  6.065   2.5853
  6.058   2.5853
  6.051   2.6471
  6.044   2.6368
  6.037   2.6059
  6.030   2.6368
  6.023   2.6986
  6.016   2.6368
  6.009   2.5853
  6.002   2.6265
  5.995   2.6471
  5.988   2.6677
  5.981   2.6677
  5.974   2.6471
  5.967   2.6471
  5.960   2.7089
  5.954   2.8222
  5.947   2.8222
  5.940   2.7707
  5.933   2.7398
  5.926   2.7604
  5.920   2.8325
  5.913   2.8840
  5.906   2.8428
  5.899   2.8222
  5.893   2.8531
  5.886   2.8943
  5.879   2.8840
  5.873   2.8943
  5.866   2.8737
  5.859   2.8737
  5.853   2.8943
  5.846   2.9355
  5.840   2.9767
  5.833   3.0179
  5.827   3.0076
  5.820   3.0282
  5.813   3.0385
  5.807   3.0282
  5.800   2.9767
  5.794   3.0282
  5.788   3.0694
  5.781   3.0591
  5.775   3.0385
  5.768   3.0591
  5.762   3.0900
  5.755   3.1312
  5.749   3.1312
  5.743   3.1106
  5.736   3.0900
  5.730   3.0591
  5.724   3.0694
  5.717   3.1106
  5.711   3.1003
  5.705   3.1003
  5.698   3.0900
  5.692   3.0797
  5.686   3.1003
  5.680   3.1209
  5.674   3.1621
  5.667   3.2239
  5.661   3.2239
  5.655   3.1621
  5.649   3.1209
  5.643   3.1415
  5.637   3.1930
  5.630   3.2239
  5.624   3.2239
  5.618   3.2342
  5.612   3.2136
  5.606   3.2445
  5.600   3.2754
  5.594   3.2754
  5.588   3.2857
  5.582   3.2754
  5.576   3.2136
  5.570   3.2445
  5.564   3.2960
  5.558   3.2754
  5.552   3.2342
  5.546   3.2651
  5.540   3.2857
  5.534   3.3063
  5.528   3.3372
  5.523   3.3269
  5.517   3.2857
  5.511   3.3166
  5.505   3.3784
  5.499   3.3887
  5.493   3.3681
  5.487   3.3784
  5.482   3.3887
  5.476   3.4093
  5.470   3.4402
  5.464   3.4196
  5.459   3.3990
  5.453   3.4196
  5.447   3.4299
  5.441   3.4814
  5.436   3.4711
  5.430   3.4814
  5.424   3.5226
  5.419   3.5432
  5.413   3.5432
  5.407   3.5432
  5.402   3.5535
  5.396   3.5535
  5.390   3.5329
  5.385   3.5638
  5.379   3.6153
  5.374   3.5741
  5.368   3.5432
  5.363   3.5741
  5.357   3.5741
  5.352   3.5535
  5.346   3.6050
  5.341   3.6462
  5.335   3.6153
  5.330   3.6153
  5.324   3.6565
  5.319   3.6771
  5.313   3.6771
  5.308   3.7080
  5.302   3.6874
  5.297   3.6565
  5.291   3.6668
  5.286   3.6874
  5.281   3.6874
  5.275   3.6977
  5.270   3.6977
  5.265   3.7286
  5.259   3.7904
  5.254   3.7801
  5.249   3.7492
  5.243   3.7595
  5.238   3.7492
  5.233   3.7595
  5.227   3.7904
  5.222   3.7904
  5.217   3.7698
  5.212   3.8213
  5.206   3.8522
  5.201   3.8728
  5.196   3.8625
  5.191   3.8625
  5.186   3.8934
  5.180   3.8831
  5.175   3.8728
  5.170   3.8831
  5.165   3.9140
  5.160   3.9037
  5.155   3.9140
  5.150   3.9449
  5.145   3.9552
  5.139   3.9655
  5.134   3.9861
  5.129   4.0067
  5.124   4.0170
  5.119   3.9964
  5.114   4.0067
  5.109   3.9964
  5.104   3.9758
  5.099   3.9655
  5.094   4.0067
  5.089   3.9964
  5.084   3.9964
  5.079   4.0273
  5.074   4.0582
  5.069   4.0891
  5.064   4.0891
  5.059   4.0376
  5.054   4.0685
  5.049   4.1406
  5.044   4.1509
  5.040   4.1509
  5.035   4.1921
  5.030   4.1303
  5.025   4.1200
  5.020   4.1406
  5.015   4.1715
  5.010   4.2024
  5.005   4.2333
  5.001   4.2024
  4.996   4.1818
  4.991   4.1818
  4.986   4.1818
  4.981   4.2230
  4.977   4.2745
  4.972   4.2848
  4.967   4.2333
  4.962   4.2230
  4.958   4.3157
  4.953   4.3775
  4.948   4.3775
  4.943   4.3569
  4.939   4.3569
  4.934   4.3054
  4.929   4.2642
  4.925   4.2951
  4.920   4.3466
  4.915   4.3878
  4.911   4.3672
  4.906   4.3775
  4.901   4.4290
  4.897   4.4393
  4.892   4.4599
  4.888   4.4599
  4.883   4.4290
  4.878   4.4496
  4.874   4.4599
  4.869   4.4290
  4.865   4.3981
  4.860   4.4496
  4.856   4.4908
  4.851   4.4805
  4.846   4.4702
  4.842   4.4908
  4.837   4.5114
  4.833   4.4908
  4.828   4.4702
  4.824   4.4496
  4.819   4.5011
  4.815   4.5732
  4.810   4.5526
  4.806   4.5320
  4.802   4.5526
  4.797   4.5835
  4.793   4.5732
  4.788   4.5835
  4.784   4.5938
  4.779   4.5732
  4.775   4.5732
  4.771   4.5526
  4.766   4.5732
  4.762   4.6659
  4.758   4.7174
  4.753   4.6968
  4.749   4.6556
  4.744   4.6453
  4.740   4.6865
  4.736   4.7277
  4.731   4.7174
  4.727   4.6659
  4.723   4.6556
  4.719   4.7380
  4.714   4.7689
  4.710   4.7792
  4.706   4.7895
  4.701   4.7689
  4.697   4.7689
  4.693   4.8101
  4.689   4.8616
  4.684   4.8925
  4.680   4.8719
  4.676   4.8204
  4.672   4.8616
  4.668   4.8616
  4.663   4.8307
  4.659   4.8410
  4.655   4.8616
  4.651   4.8822
  4.647   4.8925
  4.643   4.9337
  4.638   4.9543
  4.634   4.8616
  4.630   4.8616
  4.626   4.9131
  4.622   4.9131
  4.618   4.9646
  4.614   5.0161
  4.610   5.0058
  4.605   5.0264
  4.601   5.0779
  4.597   5.0779
  4.593   5.0676
  4.589   5.0367
  4.585   4.9852
  4.581   5.0470
  4.577   5.0573
  4.573   5.0676
  4.569   5.0882
  4.565   5.0985
  4.561   5.1294
  4.557   5.1397
  4.553   5.1500
  4.549   5.1912
  4.545   5.2633
  4.541   5.2942
  4.537   5.2839
  4.533   5.2530
  4.529   5.2118
  4.525   5.1912
  4.521   5.1912
  4.517   5.2015
  4.513   5.2736
  4.509   5.3251
  4.505   5.2633
  4.502   5.2530
  4.498   5.3045
  4.494   5.3457
  4.490   5.3354
  4.486   5.3045
  4.482   5.3354
  4.478   5.3251
  4.474   5.3663
  4.470   5.4590
  4.467   5.4693
  4.463   5.3663
  4.459   5.3354
  4.455   5.4178
  4.451   5.4693
  4.447   5.4693
  4.444   5.3972
  4.440   5.4384
  4.436   5.4487
  4.432   5.4899
  4.428   5.5414
  4.425   5.5002
  4.421   5.4487
  4.417   5.4796
  4.413   5.5517
  4.410   5.5620
  4.406   5.5311
  4.402   5.5620
  4.398   5.5620
  4.395   5.5208
  4.391   5.5414
  4.387   5.5517
  4.384   5.5208
  4.380   5.5002
  4.376   5.5208
  4.372   5.6032
  4.369   5.6341
  4.365   5.6238
  4.361   5.5826
  4.358   5.6238
  4.354   5.7062
  4.350   5.6856
  4.347   5.5826
  4.343   5.6135
  4.340   5.6547
  4.336   5.6753
  4.332   5.6444
  4.329   5.6341
  4.325   5.6753
  4.321   5.7062
  4.318   5.7886
  4.314   5.7680
  4.311   5.7062
  4.307   5.7268
  4.304   5.7886
  4.300   5.8710
  4.296   5.8607
  4.293   5.9328
  4.289   5.9534
  4.286   5.9225
  4.282   5.9431
  4.279   5.9431
  4.275   5.9225
  4.272   5.8916
  4.268   5.8607
  4.265   5.8710
  4.261   5.8710
  4.258   5.8092
  4.254   5.8195
  4.251   5.9122
  4.247   5.9843
  4.244   6.0461
  4.240   5.9843
  4.237   5.9843
  4.233   6.0976
  4.230   6.0873
  4.226   5.9637
  4.223   5.9534
  4.219   5.9946
  4.216   6.0461
  4.213   6.0770
  4.209   6.0564
  4.206   5.9637
  4.202   5.8710
  4.199   5.8298
  4.196   5.8092
  4.192   5.8504
  4.189   5.9122
  4.185   5.9019
  4.182   5.9122
  4.179   5.8916
  4.175   5.8195
  4.172   5.7577
  4.169   5.8298
  4.165   5.9328
  4.162   5.9534
  4.159   5.9225
  4.155   5.9637
  4.152   5.9843
  4.149   5.9843
  4.145   5.9225
  4.142   5.8401
  4.139   5.8813
  4.135   5.9843
  4.132   5.9534
  4.129   5.9328
  4.126   5.9431
  4.122   5.9122
  4.119   5.9637
  4.116   5.9946
  4.112   5.9843
  4.109   5.9328
  4.106   5.9122
  4.103   5.9225
  4.099   5.9122
  4.096   5.9637
  4.093   6.0461
  4.090   6.0873
  4.086   6.0255
  4.083   5.9637
  4.080   5.9946
  4.077   6.0873
  4.074   6.0873
  4.070   6.0049
  4.067   5.9122
  4.064   5.9431
  4.061   6.0049
  4.058   5.9740
  4.055   5.9019
  4.051   5.9019
  4.048   5.8813
  4.045   5.9019
  4.042   5.8813
  4.039   5.9637
  4.036   5.9946
  4.032   5.9534
  4.029   5.8916
  4.026   5.9534
  4.023   5.9431
  4.020   5.8813
  4.017   5.8195
  4.014   5.8195
  4.011   5.9328
  4.008   5.9534
  4.004   5.8710
  4.001   5.8504
  3.998   5.8504
  3.995   5.8401
  3.992   5.8607
  3.989   5.9019
  3.986   5.9019
  3.983   5.8607
  3.980   5.7886
  3.977   5.7989
  3.974   5.7989
  3.971   5.7989
  3.968   5.8195
  3.965   5.9328
  3.962   5.9431
  3.959   5.9019
  3.956   5.9328
  3.953   5.9637
  3.950   5.8916
  3.947   5.9431
  3.944   5.9431
  3.941   5.8813
  3.938   5.8607
  3.935   5.9122
  3.932   5.9328
  3.929   5.9225
  3.926   5.9122
  3.923   5.9534
  3.920   6.0049
  3.917   5.9843
  3.914   5.9225
  3.911   6.0255
  3.908   6.0255
  3.905   5.9431
  3.902   5.9534
  3.899   5.9843
  3.896   5.9431
  3.893   5.9534
  3.890   5.9328
  3.887   6.0358
  3.884   6.1079
  3.882   6.0976
  3.879   6.0976
  3.876   6.0358
  3.873   5.9534
  3.870   6.0667
  3.867   6.0564
  3.864   5.9534
  3.861   5.9946
  3.858   6.0461
  3.856   6.0255
  3.853   6.0564
  3.850   6.0564
  3.847   6.0358
  3.844   5.9740
  3.841   6.0461
  3.838   6.1182
  3.836   6.0873
  3.833   6.0255
  3.830   5.9534
  3.827   5.9431
  3.824   6.0564
  3.822   6.1079
  3.819   6.0976
  3.816   6.0667
  3.813   6.1285
  3.810   6.2006
  3.807   6.1079
  3.805   6.0564
  3.802   6.0976
  3.799   6.0770
  3.796   6.0461
  3.794   6.1079
  3.791   6.1594
  3.788   6.1388
  3.785   6.1388
  3.782   6.1079
  3.780   6.1491
  3.777   6.1388
  3.774   6.1182
  3.771   6.1594
  3.769   6.1697
  3.766   6.1182
  3.763   6.1594
  3.761   6.1697
  3.758   6.2315
  3.755   6.2212
  3.752   6.2006
  3.750   6.1285
  3.747   6.1594
  3.744   6.2212
  3.742   6.1594
  3.739   6.0873
  3.736   6.1285
  3.733   6.1697
  3.731   6.1388
  3.728   6.1079
  3.725   6.0976
  3.723   6.0976
  3.720   6.1285
  3.717   6.1285
  3.715   6.2109
  3.712   6.1903
  3.709   6.1285
  3.707   6.0976
  3.704   6.1182
  3.702   6.0873
  3.699   6.1491
  3.696   6.1285
  3.694   6.0770
  3.691   6.0873
  3.688   6.1491
  3.686   6.1491
  3.683   6.1594
  3.680   6.0667
  3.678   6.0049
  3.675   5.9225
  3.673   6.0358
  3.670   6.1491
  3.667   6.1182
  3.665   6.0873
  3.662   6.1079
  3.660   6.0976
  3.657   6.1388
  3.655   6.0976
  3.652   6.0873
  3.649   6.0461
  3.647   6.0770
  3.644   6.0667
  3.642   6.0255
  3.639   6.0049
  3.637   5.9534
  3.634   5.9225
  3.632   6.0976
  3.629   6.1388
  3.626   6.1697
  3.624   6.1697
  3.621   6.1182
  3.619   6.0049
  3.616   5.9637
  3.614   5.9946
  3.611   6.0049
  3.609   5.9534
  3.606   5.9946
  3.604   6.0358
  3.601   6.0770
  3.599   6.0770
  3.596   6.1079
  3.594   6.0976
  3.591   6.0049
  3.589   5.8298
  3.586   5.7989
  3.584   5.8916
  3.581   5.9431
  3.579   5.9534
  3.576   5.9637
  3.574   5.9534
  3.571   5.9843
  3.569   5.9843
  3.567   5.9637
  3.564   5.9843
  3.562   5.9122
  3.559   5.9534
  3.557   5.9534
  3.554   5.8607
  3.552   5.9225
  3.549   5.9019
  3.547   5.8401
  3.545   5.8607
  3.542   5.8092
  3.540   5.7886
  3.537   5.8813
  3.535   5.7989
  3.533   5.7886
  3.530   5.8607
  3.528   5.8298
  3.525   5.7577
  3.523   5.8401
  3.521   5.8607
  3.518   5.8195
  3.516   5.7680
  3.513   5.7577
  3.511   5.6753
  3.509   5.6135
  3.506   5.5929
  3.504   5.6135
  3.502   5.6135
  3.499   5.6444
  3.497   5.6753
  3.494   5.6444
  3.492   5.5826
  3.490   5.6547
  3.487   5.7268
  3.485   5.7268
  3.483   5.6341
  3.480   5.5929
  3.478   5.5105
  3.476   5.4796
  3.473   5.5002
  3.471   5.5620
  3.469   5.5414
  3.466   5.5826
  3.464   5.6547
  3.462   5.7680
  3.460   5.7783
  3.457   5.6547
  3.455   5.6032
  3.453   5.5620
  3.450   5.5414
  3.448   5.5620
  3.446   5.6238
  3.443   5.6753
  3.441   5.6135
  3.439   5.6238
  3.437   5.6341
  3.434   5.5002
  3.432   5.3663
  3.430   5.4178
  3.428   5.5002
  3.425   5.6135
  3.423   5.5517
  3.421   5.5002
  3.418   5.4384
  3.416   5.4796
  3.414   5.5826
  3.412   5.6238
  3.409   5.5311
  3.407   5.5002
  3.405   5.5002
  3.403   5.5826
  3.401   5.5208
  3.398   5.4075
  3.396   5.3251
  3.394   5.3663
  3.392   5.4384
  3.389   5.4487
  3.387   5.4384
  3.385   5.4487
  3.383   5.3869
  3.381   5.3354
  3.378   5.3869
  3.376   5.4693
  3.374   5.5620
  3.372   5.5311
  3.370   5.3972
  3.367   5.4075
  3.365   5.3251
  3.363   5.2633
  3.361   5.3148
  3.359   5.4384
  3.357   5.3972
  3.354   5.3354
  3.352   5.2839
  3.350   5.3766
  3.348   5.4075
  3.346   5.2839
  3.344   5.2221
  3.341   5.3766
  3.339   5.3251
  3.337   5.2015
  3.335   5.2118
  3.333   5.3457
  3.331   5.2942
  3.329   5.2427
  3.326   5.3045
  3.324   5.3869
  3.322   5.3663
  3.320   5.2839
  3.318   5.2221
  3.316   5.1706
  3.314   5.1500
  3.312   5.1706
  3.309   5.1809
  3.307   5.2324
  3.305   5.2530
  3.303   5.1603
  3.301   5.0882
  3.299   5.1603
  3.297   5.1809
  3.295   5.2530
  3.293   5.2530
  3.291   5.2324
  3.288   5.2324
  3.286   5.2324
  3.284   5.1191
  3.282   5.0882
  3.280   5.1088
  3.278   5.1603
  3.276   5.0676
  3.274   5.0470
  3.272   5.0470
  3.270   5.0470
  3.268   4.9955
  3.266   4.9543
  3.264   5.0264
  3.262   5.1088
  3.259   5.0470
  3.257   4.9440
  3.255   4.9234
  3.253   5.0573
  3.251   5.0367
  3.249   4.9543
  3.247   5.0264
  3.245   5.0573
  3.243   4.9440
  3.241   4.9234
  3.239   4.9440
  3.237   4.9440
  3.235   4.8925
  3.233   4.9440
  3.231   4.9852
  3.229   4.9131
  3.227   4.7998
  3.225   4.8307
  3.223   4.9337
  3.221   4.8925
  3.219   4.8101
  3.217   4.7998
  3.215   4.8513
  3.213   4.9131
  3.211   4.8513
  3.209   4.7483
  3.207   4.7689
  3.205   4.9028
  3.203   4.8822
  3.201   4.8101
  3.199   4.8204
  3.197   4.7895
  3.195   4.8101
  3.193   4.7895
  3.191   4.6556
  3.189   4.7174
  3.187   4.7071
  3.185   4.7071
  3.183   4.7071
  3.182   4.7689
  3.180   4.8101
  3.178   4.8307
  3.176   4.7792
  3.174   4.6865
  3.172   4.6556
  3.170   4.6968
  3.168   4.6350
  3.166   4.6659
  3.164   4.6144
  3.162   4.5217
  3.160   4.5629
  3.158   4.6659
  3.156   4.6247
  3.154   4.6041
  3.152   4.6144
  3.151   4.7071
  3.149   4.6350
  3.147   4.5526
  3.145   4.6247
  3.143   4.5629
  3.141   4.4908
  3.139   4.5835
  3.137   4.6556
  3.135   4.5732
  3.133   4.4702
  3.132   4.5629
  3.130   4.6144
  3.128   4.5629
  3.126   4.4908
  3.124   4.4908
  3.122   4.5732
  3.120   4.6247
  3.118   4.5320
  3.117   4.4702
  3.115   4.4496
  3.113   4.4599
  3.111   4.5526
  3.109   4.5217
  3.107   4.4187
  3.105   4.4496
  3.103   4.3363
  3.102   4.2951
  3.100   4.4290
  3.098   4.3775
  3.096   4.2848
  3.094   4.3672
  3.092   4.3466
  3.091   4.3878
  3.089   4.3569
  3.087   4.4496
  3.085   4.4908
  3.083   4.4496
  3.081   4.4702
  3.079   4.4702
  3.078   4.3157
  3.076   4.2848
  3.074   4.3569
  3.072   4.4908
  3.070   4.4908
  3.069   4.5217
  3.067   4.4393
  3.065   4.4084
  3.063   4.4599
  3.061   4.4702
  3.060   4.3054
  3.058   4.2539
  3.056   4.2230
  3.054   4.3363
  3.052   4.4805
  3.051   4.5423
  3.049   4.5011
  3.047   4.4702
  3.045   4.3775
  3.043   4.4393
  3.042   4.4084
  3.040   4.3260
  3.038   4.4084
  3.036   4.4908
  3.034   4.5011
  3.033   4.4599
  3.031   4.3672
  3.029   4.3981
  3.027   4.3878
  3.026   4.4599
  3.024   4.5217
  3.022   4.4084
  3.020   4.3260
  3.019   4.4187
  3.017   4.4290
  3.015   4.4393
  3.013   4.3878
  3.012   4.3260
  3.010   4.3157
  3.008   4.2951
  3.006   4.3157
  3.005   4.3157
  3.003   4.2951
  3.001   4.3466
  2.999   4.2539
  2.998   4.3157
  2.996   4.4187
  2.994   4.3981
  2.992   4.1921
  2.991   4.2642
  2.989   4.3569
  2.987   4.2642
  2.986   4.2642
  2.984   4.4393
  2.982   4.3672
  2.980   4.3569
  2.979   4.1921
  2.977   4.0891
  2.975   4.2127
  2.974   4.3054
  2.972   4.4187
  2.970   4.4187
  2.968   4.1612
  2.967   4.1509
  2.965   4.3054
  2.963   4.4084
  2.962   4.2436
  2.960   4.2127
  2.958   4.2230
  2.957   4.2745
  2.955   4.1509
  2.953   4.2436
  2.952   4.4290
  2.950   4.5732
  2.948   4.4599
  2.947   4.3569
  2.945   4.3363
  2.943   4.2642
  2.942   4.0685
  2.940   4.3363
  2.938   4.3878
  2.937   4.3260
  2.935   4.4187
  2.933   4.5526
  2.932   4.5320
  2.930   4.5217
  2.928   4.4908
  2.927   4.3157
  2.925   4.2230
  2.923   4.2745
  2.922   4.2436
  2.920   4.3157
  2.918   4.4702
  2.917   4.5320
  2.915   4.3054
  2.913   4.2436
  2.912   4.1921
  2.910   4.1097
  2.909   4.1097
  2.907   4.2642
  2.905   4.4084
  2.904   4.4908
  2.902   4.4393
  2.900   4.3775
  2.899   4.2951
  2.897   4.4290
  2.896   4.4599
  2.894   4.4290
  2.892   4.1921
  2.891   4.0582
  2.889   4.0685
  2.887   4.0582
  2.886   4.0685
  2.884   4.2642
  2.883   4.3569
  2.881   4.4084
  2.879   4.4084
  2.878   4.3672
  2.876   4.2951
  2.875   4.3981
  2.873   4.4908
  2.871   4.4805
  2.870   4.4290
  2.868   4.5423
  2.867   4.4187
  2.865   4.3260
  2.864   4.4496
  2.862   4.4599
  2.860   4.4496
  2.859   4.5011
  2.857   4.6865
  2.856   4.6453
  2.854   4.4290
  2.853   4.2642
  2.851   4.1612
  2.849   4.3569
  2.848   4.4496
  2.846   4.4908
  2.845   4.4702
  2.843   4.5423
  2.842   4.4393
  2.840   4.4290
  2.838   4.3363
  2.837   4.3672
  2.835   4.3775
  2.834   4.2848
  2.832   4.0994
  2.831   4.2951
  2.829   4.5011
  2.828   4.5629
  2.826   4.5732
  2.825   4.6041
  2.823   4.3775
  2.821   4.2642
  2.820   4.1818
  2.818   4.2230
  2.817   4.3569
  2.815   4.3466
  2.814   4.3157
  2.812   4.4393
  2.811   4.3878
  2.809   4.3466
  2.808   4.5423
  2.806   4.7586
  2.805   4.6247
  2.803   4.3363
  2.802   4.1200
  2.800   4.2024
  2.799   4.3054
  2.797   4.4496
  2.796   4.5732
  2.794   4.5526
  2.793   4.3775
  2.791   4.5423
  2.790   4.6041
  2.788   4.5526
  2.787   4.5320
  2.785   4.2951
  2.784   4.3260
  2.782   4.5423
  2.781   4.5114
  2.779   4.4084
  2.778   4.3157
  2.776   4.4187
  2.775   4.5011
  2.773   4.5114
  2.772   4.5114
  2.770   4.5114
  2.769   4.3672
  2.767   4.2230
  2.766   4.1406
  2.764   4.2127
  2.763   4.7174
  2.761   4.9646
  2.760   4.7277
  2.758   4.5217
  2.757   4.1406
  2.756   4.0891
  2.754   4.3981
  2.753   4.7071
  2.751   4.6556
  2.750   4.6350
  2.748   4.8410
  2.747   4.6865
  2.745   4.5114
  2.744   4.6350
  2.742   4.6865
  2.741   4.8101
  2.740   4.8307
  2.738   4.8204
  2.737   4.7689
  2.735   4.5526
  2.734   4.7174
  2.732   4.9337
  2.731   5.0161
  2.729   5.1706
  2.728   5.2942
  2.727   5.2221
  2.725   5.0470
  2.724   4.8410
  2.722   4.8925
  2.721   5.0161
  2.719   5.2633
  2.718   5.3663
  2.717   5.3869
  2.715   5.5826
  2.714   5.5723
  2.712   5.4590
  2.711   5.3972
  2.709   5.2015
  2.708   5.1088
  2.707   5.2839
  2.705   5.4075
  2.704   5.6547
  2.702   5.6650
  2.701   5.5105
  2.700   5.4590
  2.698   5.6856
  2.697   5.7268
  2.695   5.7577
  2.694   6.0667
  2.693   6.3036
  2.691   6.3654
  2.690   6.6023
  2.688   6.6435
  2.687   6.6538
  2.686   6.6229
  2.684   6.5611
  2.683   6.5508
  2.681   6.8495
  2.680   7.1276
  2.679   7.2512
  2.677   7.1482
  2.676   6.7465
  2.675   6.5611
  2.673   7.1276
  2.672   7.1585
  2.670   7.1070
  2.669   7.1173
  2.668   7.0555
  2.666   7.1791
  2.665   7.1379
  2.664   7.0555
  2.662   7.1585
  2.661   7.2203
  2.659   7.3439
  2.658   7.3542
  2.657   7.3336
  2.655   7.0967
  2.654   7.0246
  2.653   7.2203
  2.651   7.3645
  2.650   7.3542
  2.649   7.3542
  2.647   7.3542
  2.646   7.4057
  2.645   7.4469
  2.643   7.1997
  2.642   7.0761
  2.640   7.4160
  2.639   7.4469
  2.638   7.3336
  2.636   7.2821
  2.635   7.3542
  2.634   7.2512
  2.632   7.3748
  2.631   7.2409
  2.630   7.1688
  2.628   7.1070
  2.627   7.1894
  2.626   7.2409
  2.624   7.3336
  2.623   7.3336
  2.622   7.2306
  2.620   7.1379
  2.619   7.3748
  2.618   7.3645
  2.617   7.3645
  2.615   7.5911
  2.614   7.5705
  2.613   7.1894
  2.611   7.1173
  2.610   7.2821
  2.609   7.4366
  2.607   7.4469
  2.606   7.5705
  2.605   7.3542
  2.603   7.2512
  2.602   7.4572
  2.601   7.6426
  2.599   7.5911
  2.598   7.5087
  2.597   7.3851
  2.596   7.4160
  2.594   7.4469
  2.593   7.5499
  2.592   7.3851
  2.590   7.1791
  2.589   7.2512
  2.588   7.4675
  2.586   7.4778
  2.585   7.6632
  2.584   7.8280
  2.583   7.9722
  2.581   7.7147
  2.580   7.5087
  2.579   7.1276
  2.577   7.0864
  2.576   7.3542
  2.575   7.3748
  2.574   7.4057
  2.572   7.5293
  2.571   7.5499
  2.570   7.7662
  2.569   7.4160
  2.567   7.2615
  2.566   7.4469
  2.565   7.6838
  2.563   7.5602
  2.562   7.3027
  2.561   7.2924
  2.560   7.3645
  2.558   7.2100
  2.557   7.2718
  2.556   7.3439
  2.555   7.4675
  2.553   7.6220
  2.552   7.6426
  2.551   7.5705
  2.550   7.8589
  2.548   7.6529
  2.547   7.2306
  2.546   7.0967
  2.545   7.1894
  2.543   7.4366
  2.542   7.4572
  2.541   7.4881
  2.540   7.7662
  2.538   7.7044
  2.537   7.4675
  2.536   7.3130
  2.535   7.5808
  2.533   7.6117
  2.532   7.4057
  2.531   7.4160
  2.530   7.7456
  2.528   7.5293
  2.527   7.2100
  2.526   7.2512
  2.525   7.3645
  2.524   7.5602
  2.522   7.5808
  2.521   7.5911
  2.520   7.7765
  2.519   7.5911
  2.517   7.3645
  2.516   7.2512
  2.515   7.2100
  2.514   7.1585
  2.513   7.2512
  2.511   7.3542
  2.510   7.3645
  2.509   7.7147
  2.508   7.9825
  2.506   7.6426
  2.505   7.6426
  2.504   7.7147
  2.503   7.6117
  2.502   7.5911
  2.500   7.7456
  2.496   6.8818
  2.492   7.0044
  2.488   6.7765
  2.484   7.5788
  2.480   7.3946
  2.476   7.7991
  2.472   7.9363
  2.468   7.4409
  2.464   7.4679
  2.460   7.1532
  2.456   7.5764
  2.452   7.9201
  2.448   7.6637
  2.444   7.6882
  2.440   7.4841
  2.436   7.5113
  2.432   8.0276
  2.428   7.6341
  2.424   7.5463
  2.420   7.4280
  2.416   7.3749
  2.412   7.8710
  2.408   7.6497
  2.404   8.0762
  2.400   7.7419
  2.396   7.7834
  2.392   8.2391
  2.388   7.5649
  2.384   7.3867
  2.380   7.8324
  2.376   7.6512
  2.372   7.9729
  2.368   7.9365
  2.364   7.8881
  2.360   7.9185
  2.356   7.7215
  2.352   8.0043
  2.348   8.0598
  2.344   7.9247
  2.340   7.8428
  2.336   7.8105
  2.332   7.9254
  2.328   7.8781
  2.324   7.9821
  2.320   8.2468
  2.316   7.6035
  2.312   7.6686
  2.308   7.9859
  2.304   8.1585
  2.300   7.9890
  2.296   7.9233
  2.292   7.8748
  2.288   8.1110
  2.284   7.8604
  2.280   8.0084
  2.276   7.8858
  2.272   7.9231
  2.268   7.9386
  2.264   8.0800
  2.260   8.0717
  2.256   8.0245
  2.252   8.0140
  2.248   7.9509
  2.244   8.0891
  2.240   8.1926
  2.236   8.1171
  2.232   8.0262
  2.228   8.0259
  2.224   8.0106
  2.220   8.0889
  2.216   8.2550
  2.212   8.2592
  2.208   8.2631
  2.204   8.1654
  2.200   8.2292
  2.196   8.4043
  2.192   8.3191
  2.188   8.2240
  2.184   8.3004
  2.180   8.3945
  2.176   8.4738
  2.172   8.3898
  2.168   8.5305
  2.164   8.5559
  2.160   8.5796
  2.156   8.4634
  2.152   8.4242
  2.148   8.6009
  2.144   8.6275
  2.140   8.5236
  2.136   8.3996
  2.132   8.4945
  2.128   8.5974
  2.124   8.5287
  2.120   8.4523
  2.116   8.4014
  2.112   8.4823
  2.108   8.4991
  2.104   8.3609
  2.100   8.4663
  2.096   8.4752
  2.092   8.3922
  2.088   8.3801
  2.084   8.4595
  2.080   8.4489
  2.076   8.5160
  2.072   8.5459
  2.068   8.4863
  2.064   8.5061
  2.060   8.6276
  2.056   8.5498
  2.052   8.6035
  2.048   8.7019
  2.044   8.6179
  2.040   8.5736
  2.036   8.6089
  2.032   8.6435
  2.028   8.6027
  2.024   8.6490
  2.020   8.6494
  2.016   8.6710
  2.012   8.6920
  2.008   8.6905
  2.004   8.7167
  2.000   8.7106
  1.996   8.7081
  1.992   8.6590
  1.988   8.7029
  1.984   8.7326
  1.980   8.7730
  1.976   8.7809
  1.972   8.7600
  1.968   8.7348
  1.964   8.7595
  1.960   8.7759
  1.956   8.7438
  1.952   8.6751
  1.948   8.7384
  1.944   8.9013
  1.940   8.8378
  1.936   8.6529
  1.932   8.6328
  1.928   8.7011
  1.924   8.6172
  1.920   8.4698
  1.916   8.4093
  1.912   8.3963
  1.908   8.4300
  1.904   8.4771
  1.900   8.3863
  1.896   8.3782
  1.892   8.4912
  1.888   8.6245
  1.884   8.7105
  1.880   8.7624
  1.876   8.8663
  1.872   8.8532
  1.868   8.8214
  1.864   8.8724
  1.860   8.9004
  1.856   8.8727
  1.852   8.8898
  1.848   8.9119
  1.844   8.9408
  1.840   8.9716
  1.836   8.9426
  1.832   8.8769
  1.828   8.8336
  1.824   8.8737
  1.820   8.9144
  1.816   8.9044
  1.812   8.9202
  1.808   8.9384
  1.804   8.9514
  1.800   8.9457
  1.796   8.9537
  1.792   9.0096
  1.788   9.0499
  1.784   9.0586
  1.780   9.0885
  1.776   9.0849
  1.772   9.0624
  1.768   9.0733
  1.764   9.0859
  1.760   9.0669
  1.756   9.0566
  1.752   9.0536
  1.748   9.0506
  1.744   9.0625
  1.740   9.0664
  1.736   9.0391
  1.732   9.0547
  1.728   9.0687
  1.724   9.0559
  1.720   9.0775
  1.716   9.0930
  1.712   9.0900
  1.708   9.0395
  1.704   9.0588
  1.700   9.0537
  1.696   9.0549
  1.692   9.1000
  1.688   9.1245
  1.684   9.1149
  1.680   9.1211
  1.676   9.0699
  1.672   9.0466
  1.668   9.0552
  1.664   9.0823
  1.660   9.0593
  1.656   9.0232
  1.652   9.0290
  1.648   9.0634
  1.644   9.0273
  1.640   9.0170
  1.636   9.0516
  1.632   9.0232
  1.628   9.0682
  1.624   9.0233
  1.620   9.0021
  1.616   8.9846
  1.612   9.0270
  1.608   9.0352
  1.604   8.9915
  1.600   9.0146
  1.596   8.9790
  1.592   8.9769
  1.588   8.9787
  1.584   8.9713
  1.580   8.9769
  1.576   8.9694
  1.572   8.9448
  1.568   8.9515
  1.564   8.9455
  1.560   8.9509
  1.556   8.9309
  1.552   8.9398
  1.548   8.8798
  1.544   8.8897
  1.540   8.9018
  1.536   8.8902
  1.532   8.8567
  1.528   8.8456
  1.524   8.8189
  1.520   8.8026
  1.516   8.8563
  1.512   8.8632
  1.508   8.8081
  1.504   8.7738
  1.500   8.7580
  1.496   8.7181
  1.492   8.7180
  1.488   8.7797
  1.484   8.7342
  1.480   8.7321
  1.476   8.6897
  1.472   8.7001
  1.468   8.6561
  1.464   8.6187
  1.460   8.6677
  1.456   8.6313
  1.452   8.6091
  1.448   8.6066
  1.444   8.6176
  1.440   8.5829
  1.436   8.5463
  1.432   8.5077
  1.428   8.5591
  1.424   8.5463
  1.420   8.5039
  1.416   8.4400
  1.412   8.4836
  1.408   8.4857
  1.404   8.4643
  1.400   8.4357
  1.396   8.4132
  1.392   8.3750
  1.388   8.4053
  1.384   8.4972
  1.380   8.4543
  1.376   8.3420
  1.372   8.2994
  1.368   8.4256
  1.364   8.5022
  1.360   8.4460
  1.356   8.2892
  1.352   8.2352
  1.348   8.1990
  1.344   8.3084
  1.340   8.3651
  1.336   8.3953
  1.332   8.3617
  1.328   8.2886
  1.324   8.2385
  1.320   8.2484
  1.316   8.1965
  1.312   8.2035
  1.308   8.2272
  1.304   8.1845
  1.300   8.2210
  1.296   8.1829
  1.292   8.1856
  1.288   8.2618
  1.284   8.1465
  1.280   8.1559
  1.276   8.1443
  1.272   8.2260
  1.268   8.1415
  1.264   8.1340
  1.260   8.1988
  1.256   8.1402
  1.252   8.1578
  1.248   8.1307
  1.244   8.1714
  1.240   8.1071
  1.236   8.1341
  1.232   8.1178
  1.228   8.1175
  1.224   8.1619
  1.220   8.1423
  1.216   8.0741
  1.212   8.0634
  1.208   8.1030
  1.204   8.1196
  1.200   8.1046
  1.196   8.0493
  1.192   8.0981
  1.188   8.0402
  1.184   8.0019
  1.180   8.0781
  1.176   8.1045
  1.172   8.0603
  1.168   8.0615
  1.164   8.0402
  1.160   8.0890
  1.156   8.0384
  1.152   8.0715
  1.148   8.0798
  1.144   8.0098
  1.140   7.9643
  1.136   7.9852
  1.132   8.0016
  1.128   7.9567
  1.124   7.9470
  1.120   7.9121
  1.116   7.8999
  1.112   7.8977
  1.108   7.8684
  1.104   7.8653
  1.100   7.8604
  1.096   7.8431
  1.092   7.8696
  1.088   7.8144
  1.084   7.7682
  1.080   7.7603
  1.076   7.7883
  1.072   7.8052
  1.068   7.7571
  1.064   7.7451
  1.060   7.7412
  1.056   7.7769
  1.052   7.7528
  1.048   7.7743
  1.044   7.8100
  1.040   7.8121
  1.036   7.8036
  1.032   7.7793
  1.028   7.8369
  1.024   7.8525
  1.020   7.8665
  1.016   7.8815
  1.012   7.9133
  1.008   7.9368
  1.004   7.9870
  1.000   7.9583
  0.996   8.0308
  0.992   8.1134
  0.988   8.0848
  0.984   8.0943
  0.980   8.1920
  0.976   8.2243
  0.972   8.2643
  0.968   8.2770
  0.964   8.3232
  0.960   8.3723
  0.956   8.4491
  0.952   8.4944
  0.948   8.5179
  0.944   8.5306
  0.940   8.5582
  0.936   8.6621
  0.932   8.7201
  0.928   8.8057
  0.924   8.9344
  0.920   9.0114
  0.916   9.0881
  0.912   9.1426
  0.908   9.2049
  0.904   9.1772
  0.900   9.2378
  0.896   9.2581
  0.892   9.3059
  0.888   9.3303
  0.884   9.2889
  0.880   9.4055
  0.876   9.4858
  0.872   9.3650
  0.868   9.3099
  0.864   9.3924
  0.860   9.6121
  0.856   9.7991
  0.852   9.4266
  0.848   8.5069
  0.844   8.8391
  0.840   9.0272
  0.836   9.2248
  0.832   9.3555
  0.828   9.4123
  0.824   9.5649
  0.820   9.5616
  0.816   9.5180
  0.812   9.6018
  0.808   9.6767
  0.804   9.6735
  0.800   9.6428
  0.796   9.6088
  0.792   9.6409
  0.788   9.6933
  0.784   9.6981
  0.780   9.6774
  0.776   9.7068
  0.772   9.7101
  0.768   9.7208
  0.764   9.7379
  0.760   9.7774
  0.756   9.7940
  0.752   9.8134
  0.748   9.8267
  0.744   9.8429
  0.740   9.8605
  0.736   9.8686
  0.732   9.8757
  0.728   9.8769
  0.724   9.8759
  0.720   9.8930
  0.716   9.8892
  0.712   9.8934
  0.708   9.9289
  0.704   9.9233
  0.700   9.9256
  0.696   9.9187
  0.692   9.9410
  0.688   9.9423
  0.684   9.9328
  0.680   9.9489
  0.676   9.9655
  0.672   9.9553
  0.668   9.9629
  0.664   9.9731
  0.660   9.9640
  0.656   9.9503
  0.652   9.9404
  0.648   9.9521
  0.644   9.9547
  0.640   9.9566
  0.636   9.9542
  0.632   9.9523
  0.628   9.9611
  0.624   9.9737
  0.620   9.9740
  0.616   9.9691
  0.612   9.9829
  0.608   9.9822
  0.604   9.9761
  0.600   9.9692
  0.596   9.9984
  0.592   9.9909
  0.588   9.9967
  0.584   9.9939
  0.580   9.9764
  0.576   9.9820
  0.572   9.9809
  0.568   9.9792
  0.564   9.9658
  0.560   9.9648
  0.556   9.9530
  0.552   9.9419
  0.548   9.9412
  0.544   9.9445
  0.540   9.9376
  0.536   9.9280
  0.532   9.9230
  0.528   9.9203
  0.524   9.9171
  0.520   9.9078
  0.516   9.9085
  0.512   9.9000
  0.508   9.8904
  0.504   9.8993
  0.500   9.8871
  0.496   9.8700
  0.492   9.8490
  0.488   9.8262
  0.484   9.8046
  0.480   9.7840
  0.476   9.7672
  0.472   9.7938
  0.468   9.7990
  0.464   9.7970
  0.460   9.8014
  0.456   9.8071
  0.452   9.7930
  0.448   9.7880
  0.444   9.7984
  0.440   9.8214
  0.436   9.8406
  0.432   9.8591
  0.428   9.8543
  0.424   9.8331
  0.420   9.8434
  0.416   9.8447
  0.412   9.8374
  0.408   9.8329
  0.404   9.8320
  0.400   9.8248
